* Sea-Bird SBE 49 Data File:
* FileName = C:\Sea-Bird Data\2014\DY1408 Leg I\BONGO Casts\BON002.hex
* Software Version Seasave V 7.22.3
* Temperature SN = 0277
* Conductivity SN = 0277
* System UpLoad Time = Aug 18 2014 23:39:39
* Real-Time Sample Interval = 0.0625 seconds
* System UTC = Aug 18 2014 23:39:39
# nquan = 6
# nvalues = 151                         
# units = specified
# name 0 = prdM: Pressure, Strain Gauge [db]
# name 1 = t4990C: Temperature [ITS-90, deg C]
# name 2 = c0mS/cm: Conductivity [mS/cm]
# name 3 = sal00: Salinity, Practical [PSU]
# name 4 = sigma-t00: Density [sigma-t, kg/m^3 ]
# name 5 = flag: flag
# span 0 =      1.000,     76.000       
# span 1 =    -0.2782,    13.7571       
# span 2 =  19.760609,  37.822351       
# span 3 =    16.2627,    38.3553       
# span 4 =    11.8058,    30.7579       
# span 5 = 0.0000e+00, 0.0000e+00       
# interval = decibars: 1                
# start_time = Aug 18 2014 23:39:39 [System UTC, header]
# bad_flag = -9.990e-29
# <Sensors count="3" >
#   <sensor Channel="1" >
#     <!-- Count, Temperature -->
#     <TemperatureSensor SensorID="57" >
#       <SerialNumber>0277</SerialNumber>
#       <CalibrationDate>03-Jan-14</CalibrationDate>
#       <A0>9.64571400e-004</A0>
#       <A1>2.59035200e-004</A1>
#       <A2>-1.38270800e-007</A2>
#       <A3>1.28729300e-007</A3>
#       <Offset>0.0000</Offset>
#       <Slope>1.00000000</Slope>
#     </TemperatureSensor>
#   </sensor>
#   <sensor Channel="2" >
#     <!-- Frequency 0, Conductivity -->
#     <ConductivitySensor SensorID="3" >
#       <SerialNumber>0277</SerialNumber>
#       <CalibrationDate>03-Jan-14</CalibrationDate>
#       <UseG_J>1</UseG_J>
#       <!-- Cell const and series R are applicable only for wide range sensors. -->
#       <SeriesR>0.0000</SeriesR>
#       <CellConst>2000.0000</CellConst>
#       <ConductivityType>0</ConductivityType>
#       <Coefficients equation="0" >
#         <A>0.00000000e+000</A>
#         <B>0.00000000e+000</B>
#         <C>0.00000000e+000</C>
#         <D>0.00000000e+000</D>
#         <M>0.0</M>
#         <CPcor>-9.57000000e-008</CPcor>
#       </Coefficients>
#       <Coefficients equation="1" >
#         <G>-9.80968900e-001</G>
#         <H>1.47670600e-001</H>
#         <I>-2.95674100e-004</I>
#         <J>4.61137000e-005</J>
#         <CPcor>-9.57000000e-008</CPcor>
#         <CTcor>3.2500e-006</CTcor>
#         <!-- WBOTC not applicable unless ConductivityType = 1. -->
#         <WBOTC>0.00000000e+000</WBOTC>
#       </Coefficients>
#       <Slope>1.00000000</Slope>
#       <Offset>0.00000</Offset>
#     </ConductivitySensor>
#   </sensor>
#   <sensor Channel="3" >
#     <!-- Count, Pressure, Strain Gauge -->
#     <PressureSensor SensorID="46" >
#       <SerialNumber>0277</SerialNumber>
#       <CalibrationDate>02-Jan-14</CalibrationDate>
#       <PA0>2.74818185e-002</PA0>
#       <PA1>1.55084776e-003</PA1>
#       <PA2>8.62880724e-012</PA2>
#       <PTEMPA0>-5.76567308e+001</PTEMPA0>
#       <PTEMPA1>5.77780618e+001</PTEMPA1>
#       <PTEMPA2>-1.06591004e+000</PTEMPA2>
#       <PTCA0>5.25275527e+005</PTCA0>
#       <PTCA1>-3.47163675e+000</PTCA1>
#       <PTCA2>1.91172747e-001</PTCA2>
#       <PTCB0>2.50353750e+001</PTCB0>
#       <PTCB1>7.50000000e-005</PTCB1>
#       <PTCB2>0.00000000e+000</PTCB2>
#       <Offset>0.000000</Offset>
#     </PressureSensor>
#   </sensor>
# </Sensors>
# datcnv_date = Aug 19 2014 04:07:35, 7.23.2 [datcnv_vars = 3]
# datcnv_in = c:\data\fastcat\current\bon002.hex c:\data\fastcat\current\bon002.XMLCON
# datcnv_skipover = 0
# filter_date = Aug 19 2014 04:07:36, 7.23.2
# filter_in = c:\data\fastcat\current\bon002.cnv
# filter_low_pass_tc_A = 0.085
# filter_low_pass_tc_B = 0.250
# filter_low_pass_A_vars = t4990C c0mS/cm
# filter_low_pass_B_vars = prdM
# alignctd_date = Aug 19 2014 04:07:36, 7.23.2
# alignctd_in = c:\data\fastcat\current\bon002.cnv
# alignctd_adv = t4990C 0.063, c0mS/cm 0.063                                                                                                                                                                                         
# celltm_date = Aug 19 2014 04:07:36, 7.23.2
# celltm_in = c:\data\fastcat\current\bon002.cnv
# celltm_alpha = 0.0300, 0.0000
# celltm_tau = 7.0000, 0.0000
# celltm_temp_sensor_use_for_cond = primary, 
# loopedit_date = Aug 19 2014 04:07:36, 7.23.2
# loopedit_in = c:\data\fastcat\current\bon002.cnv
# loopedit_minVelocity = 0.000                                                                                            
# loopedit_surfaceSoak: do not remove                                                                                     
# loopedit_excl_bad_scans = yes
# Derive_date = Aug 19 2014 04:07:36, 7.23.2 [derive_vars = 2]
# Derive_in = c:\data\fastcat\current\bon002.cnv c:\data\fastcat\current\bon002.XMLCON
# binavg_date = Aug 19 2014 04:07:36, 7.23.2
# binavg_in = c:\data\fastcat\current\bon002.cnv
# binavg_bintype = decibars
# binavg_binsize = 1
# binavg_excl_bad_scans = yes
# binavg_skipover = 0
# binavg_surface_bin = yes, min = 0.000, max = 0.000, value = 0.000
# file_type = ascii
*END*
      1.000    13.7571  19.760609    16.2627    11.8058 0.0000e+00
      2.000    13.6455  37.292797    31.0393    23.2010 0.0000e+00
      3.000    13.6161  37.822350    31.5046    23.5650 0.0000e+00
      4.000    13.5980  37.806480    31.5044    23.5685 0.0000e+00
      5.000    13.5829  37.793308    31.5043    23.5714 0.0000e+00
      6.000    13.5776  37.788750    31.5040    23.5722 0.0000e+00
      7.000    13.5751  37.786907    31.5040    23.5728 0.0000e+00
      8.000    13.5696  37.782448    31.5040    23.5738 0.0000e+00
      9.000    13.5630  37.776875    31.5039    23.5751 0.0000e+00
     10.000    13.5596  37.774448    31.5041    23.5759 0.0000e+00
     11.000    13.5545  37.769855    31.5036    23.5766 0.0000e+00
     12.000    13.5499  37.766628    31.5040    23.5778 0.0000e+00
     13.000    13.5477  37.765263    31.5042    23.5784 0.0000e+00
     14.000    13.5464  37.765377    31.5049    23.5792 0.0000e+00
     15.000    13.5437  37.763046    31.5046    23.5795 0.0000e+00
     16.000    13.5382  37.757839    31.5039    23.5801 0.0000e+00
     17.000    13.0473  37.305336    31.4861    23.6614 0.0000e+00
     18.000    10.6107  35.281796    31.5971    24.1930 0.0000e+00
     19.000     9.5765  34.453175    31.6661    24.4184 0.0000e+00
     20.000     8.5176  33.575493    31.7012    24.6085 0.0000e+00
     21.000     7.9828  33.150055    31.7350    24.7129 0.0000e+00
     22.000     7.5956  32.836872    31.7531    24.7816 0.0000e+00
     23.000     7.3670  32.654015    31.7653    24.8225 0.0000e+00
     24.000     6.9646  32.302986    31.7547    24.8678 0.0000e+00
     25.000     6.5926  31.989252    31.7555    24.9164 0.0000e+00
     26.000     6.5552  31.985226    31.7853    24.9447 0.0000e+00
     27.000     6.5811  32.041420    31.8226    24.9708 0.0000e+00
     28.000     6.5119  31.997742    31.8385    24.9921 0.0000e+00
     29.000     7.8657  31.970589    30.5873    23.8287 0.0000e+00
     30.000     7.9785  31.876789    30.3877    23.6568 0.0000e+00
     31.000     7.9788  31.792860    30.2984    23.5868 0.0000e+00
     32.000     7.9788  31.693569    30.1933    23.5044 0.0000e+00
     33.000     7.9570  31.475370    29.9816    23.3414 0.0000e+00
     34.000     7.6784  31.203037    29.9428    23.3467 0.0000e+00
     35.000     4.8230  30.963127    32.2594    25.5256 0.0000e+00
     36.000     5.0699  30.966547    32.0414    25.3226 0.0000e+00
     37.000     5.0355  30.941179    32.0449    25.3292 0.0000e+00
     38.000     4.9349  30.861252    32.0495    25.3438 0.0000e+00
     39.000     4.7245  30.691448    32.0564    25.3717 0.0000e+00
     40.000     4.6290  30.616741    32.0620    25.3862 0.0000e+00
     41.000     4.5935  30.589622    32.0645    25.3919 0.0000e+00
     42.000     4.5702  30.571989    32.0661    25.3956 0.0000e+00
     43.000     4.5575  30.563646    32.0682    25.3986 0.0000e+00
     44.000     5.2553  30.579521    31.5320    24.8825 0.0000e+00
     45.000     7.9570  30.639023    29.0990    22.6490 0.0000e+00
     46.000     7.9788  30.612057    29.0503    22.6082 0.0000e+00
     47.000     6.3047  30.561817    30.6838    24.0736 0.0000e+00
     48.000     8.1794  30.600183    28.8349    22.4172 0.0000e+00
     49.000     4.6893  30.501028    32.4592    25.6243 0.0000e+00
     50.000    -0.2782  30.442820    38.3553    30.7579 0.0000e+00
     51.000     0.0246  30.474461    37.2135    29.8665 0.0000e+00
     52.000     0.2314  30.507391    37.3046    29.9046 0.0000e+00
     53.000     1.8211  30.575350    35.2917    28.1859 0.0000e+00
     54.000     4.2768  30.618126    32.4492    25.7252 0.0000e+00
     55.000     4.6137  30.602512    32.0528    25.3806 0.0000e+00
     56.000     4.5026  30.588770    32.1442    25.4646 0.0000e+00
     57.000     4.5663  30.578733    32.0701    25.3992 0.0000e+00
     58.000     4.5579  30.573145    32.0713    25.4011 0.0000e+00
     59.000     4.6162  30.569828    32.0105    25.3467 0.0000e+00
     60.000     4.6353  30.566782    31.9880    25.3269 0.0000e+00
     61.000     4.6352  30.565058    31.9856    25.3250 0.0000e+00
     62.000     4.6361  30.563303    31.9822    25.3222 0.0000e+00
     63.000     4.6388  30.563747    31.9797    25.3199 0.0000e+00
     64.000     4.6416  30.562632    31.9751    25.3160 0.0000e+00
     65.000     4.6435  30.564030    31.9744    25.3153 0.0000e+00
     66.000     4.6512  30.565018    31.9677    25.3091 0.0000e+00
     67.000     4.6474  30.564909    31.9707    25.3119 0.0000e+00
     68.000     4.6465  30.564642    31.9708    25.3121 0.0000e+00
     69.000     4.6462  30.564890    31.9708    25.3121 0.0000e+00
     70.000     4.6464  30.565386    31.9707    25.3120 0.0000e+00
     71.000     4.6467  30.566105    31.9707    25.3120 0.0000e+00
     72.000     4.6476  30.567205    31.9707    25.3119 0.0000e+00
     73.000     4.6476  30.567642    31.9706    25.3118 0.0000e+00
     74.000     4.6470  30.567432    31.9705    25.3118 0.0000e+00
     75.000     4.6470  30.567846    31.9705    25.3118 0.0000e+00
     76.000     4.6470  30.568680    31.9709    25.3121 0.0000e+00
     75.000     4.6465  30.567871    31.9710    25.3123 0.0000e+00
     74.000     4.6464  30.567245    31.9709    25.3121 0.0000e+00
     73.000     4.6442  30.564610    31.9704    25.3120 0.0000e+00
     72.000     4.6471  30.566933    31.9708    25.3121 0.0000e+00
     71.000     4.6467  30.566290    31.9709    25.3122 0.0000e+00
     70.000     4.6467  30.565763    31.9709    25.3121 0.0000e+00
     69.000     4.6467  30.565327    31.9708    25.3121 0.0000e+00
     68.000     4.6468  30.564943    31.9708    25.3121 0.0000e+00
     67.000     4.6468  30.564739    31.9711    25.3123 0.0000e+00
     66.000     4.6468  30.564482    31.9712    25.3124 0.0000e+00
     65.000     4.6469  30.563917    31.9711    25.3122 0.0000e+00
     64.000     4.6470  30.563408    31.9709    25.3121 0.0000e+00
     63.000     4.6474  30.563581    31.9712    25.3123 0.0000e+00
     62.000     4.6467  30.562811    31.9714    25.3125 0.0000e+00
     61.000     4.6472  30.562792    31.9715    25.3125 0.0000e+00
     60.000     4.6489  30.563778    31.9714    25.3123 0.0000e+00
     59.000     4.6481  30.562723    31.9715    25.3124 0.0000e+00
     58.000     4.6476  30.561798    31.9714    25.3124 0.0000e+00
     57.000     4.6480  30.561497    31.9712    25.3122 0.0000e+00
     56.000     4.6484  30.561632    31.9714    25.3124 0.0000e+00
     55.000     4.6484  30.560965    31.9711    25.3121 0.0000e+00
     54.000     4.6497  30.561657    31.9712    25.3120 0.0000e+00
     53.000     4.6497  30.561003    31.9709    25.3119 0.0000e+00
     52.000     4.6500  30.560860    31.9709    25.3118 0.0000e+00
     51.000     4.6509  30.561035    31.9708    25.3116 0.0000e+00
     50.000     4.6518  30.561596    31.9711    25.3118 0.0000e+00
     49.000     4.6577  30.566381    31.9715    25.3114 0.0000e+00
     48.000     4.6588  30.566805    31.9714    25.3113 0.0000e+00
     47.000     4.6576  30.565414    31.9714    25.3114 0.0000e+00
     46.000     4.6591  30.566471    31.9716    25.3114 0.0000e+00
     45.000     4.6633  30.569872    31.9720    25.3113 0.0000e+00
     44.000     4.6658  30.571629    31.9722    25.3112 0.0000e+00
     43.000     4.6714  30.576429    31.9729    25.3111 0.0000e+00
     42.000     4.6903  30.592430    31.9736    25.3097 0.0000e+00
     41.000     4.6969  30.597837    31.9740    25.3093 0.0000e+00
     40.000     4.7406  30.636078    31.9765    25.3067 0.0000e+00
     39.000     4.8320  30.716438    31.9815    25.3009 0.0000e+00
     38.000     5.0445  30.904192    31.9933    25.2873 0.0000e+00
     37.000     5.1432  30.989365    31.9966    25.2791 0.0000e+00
     36.000     5.1925  31.029671    31.9959    25.2731 0.0000e+00
     35.000     5.2451  31.069450    31.9914    25.2637 0.0000e+00
     34.000     5.2880  31.088978    31.9731    25.2444 0.0000e+00
     33.000     5.4255  31.170902    31.9355    25.1991 0.0000e+00
     32.000     5.6202  31.293272    31.8894    25.1403 0.0000e+00
     31.000     5.7625  31.385229    31.8588    25.0994 0.0000e+00
     30.000     5.9160  31.483866    31.8251    25.0547 0.0000e+00
     29.000     6.0583  31.591616    31.8122    25.0274 0.0000e+00
     28.000     6.2137  31.718395    31.8081    25.0052 0.0000e+00
     27.000     6.4622  31.934793    31.8159    24.9805 0.0000e+00
     26.000     6.4510  31.889032    31.7763    24.9507 0.0000e+00
     25.000     6.3920  31.838783    31.7763    24.9581 0.0000e+00
     24.000     6.4036  31.865717    31.7957    24.9719 0.0000e+00
     23.000     6.9062  32.300041    31.8057    24.9153 0.0000e+00
     22.000     7.4422  32.763885    31.8152    24.8515 0.0000e+00
     21.000     7.6787  32.957649    31.8069    24.8123 0.0000e+00
     20.000     7.9266  33.148090    31.7845    24.7599 0.0000e+00
     19.000     8.1890  33.362495    31.7741    24.7141 0.0000e+00
     18.000     8.5313  33.652199    31.7701    24.6606 0.0000e+00
     17.000     9.9598  34.834911    31.7163    24.3936 0.0000e+00
     16.000    12.8374  37.204098    31.5658    23.7623 0.0000e+00
     15.000    13.5821  37.802311    31.5095    23.5760 0.0000e+00
     14.000    13.5369  37.751305    31.4997    23.5771 0.0000e+00
     13.000    13.5397  37.748734    31.4954    23.5732 0.0000e+00
     12.000    13.5425  37.748943    31.4937    23.5713 0.0000e+00
     11.000    13.5464  37.751095    31.4929    23.5699 0.0000e+00
     10.000    13.5493  37.752220    31.4919    23.5686 0.0000e+00
      9.000    13.5517  37.753433    31.4914    23.5677 0.0000e+00
      8.000    13.5553  37.754883    31.4902    23.5660 0.0000e+00
      7.000    13.5575  37.755623    31.4894    23.5650 0.0000e+00
      6.000    13.5603  37.756824    31.4886    23.5638 0.0000e+00
      5.000    13.5653  37.760132    31.4880    23.5623 0.0000e+00
      4.000    13.5723  37.764603    31.4867    23.5600 0.0000e+00
      3.000    13.5883  37.778717    31.4870    23.5570 0.0000e+00
      2.000    13.6161  37.803261    31.4873    23.5517 0.0000e+00
      1.000    13.6455  36.976635    30.7174    22.9522 0.0000e+00
