* Sea-Bird SBE 19plus Data File:
* FileName = C:\Sea-Bird Data\2014\DY1405\Casts\BON050.hex
* Software Version Seasave V 7.22.3
* Temperature SN = 4530
* Conductivity SN = 4530
* System UpLoad Time = May 16 2014 17:56:45
* Real-Time Sample Interval = 0.2500 seconds
* System UTC = May 16 2014 17:56:45
# nquan = 7                                 
# nvalues = 607                         
# units = specified
# name 0 = timeS: Time, Elapsed [seconds]
# name 1 = prdM: Pressure, Strain Gauge [db]
# name 2 = tv290C: Temperature [ITS-90, deg C]
# name 3 = c0mS/cm: Conductivity [mS/cm]
# name 4 = sal00: Salinity, Practical [PSU]
# name 5 = sigma-t00: Density [sigma-t, Kg/m^3 ]
# name 6 = flag: flag
# span 0 =    285.528,   2077.074       
# span 1 =      1.000,    304.000       
# span 2 =     3.5896,     6.1499       
# span 3 =  28.142869,  32.052722       
# span 4 =    28.1173,    33.1792       
# span 5 =    22.1267,    26.3773       
# span 6 = 0.0000e+00, 0.0000e+00       
# interval = decibars: 1                
# start_time = May 16 2014 17:56:45 [System UTC, header]
# bad_flag = -9.990e-29
# <Sensors count="3" >
#   <sensor Channel="1" >
#     <!-- Count, Temperature -->
#     <TemperatureSensor SensorID="58" >
#       <SerialNumber>4530</SerialNumber>
#       <CalibrationDate>03-Dec-13</CalibrationDate>
#       <A0>1.22471000e-003</A0>
#       <A1>2.66234600e-004</A1>
#       <A2>-3.25282000e-007</A2>
#       <A3>1.63905300e-007</A3>
#       <Slope>1.00000000</Slope>
#       <Offset>0.0000</Offset>
#     </TemperatureSensor>
#   </sensor>
#   <sensor Channel="2" >
#     <!-- Frequency 0, Conductivity -->
#     <ConductivitySensor SensorID="3" >
#       <SerialNumber>4530</SerialNumber>
#       <CalibrationDate>03-Dec-13</CalibrationDate>
#       <UseG_J>1</UseG_J>
#       <!-- Cell const and series R are applicable only for wide range sensors. -->
#       <SeriesR>0.0000</SeriesR>
#       <CellConst>2000.0000</CellConst>
#       <ConductivityType>0</ConductivityType>
#       <Coefficients equation="0" >
#         <A>0.00000000e+000</A>
#         <B>0.00000000e+000</B>
#         <C>0.00000000e+000</C>
#         <D>0.00000000e+000</D>
#         <M>0.0</M>
#         <CPcor>-9.57000000e-008</CPcor>
#       </Coefficients>
#       <Coefficients equation="1" >
#         <G>-9.84131900e-001</G>
#         <H>1.41458700e-001</H>
#         <I>-1.92288200e-004</I>
#         <J>3.59848200e-005</J>
#         <CPcor>-9.57000000e-008</CPcor>
#         <CTcor>3.2500e-006</CTcor>
#         <!-- WBOTC not applicable unless ConductivityType = 1. -->
#         <WBOTC>0.00000000e+000</WBOTC>
#       </Coefficients>
#       <Slope>1.00000000</Slope>
#       <Offset>0.00000</Offset>
#     </ConductivitySensor>
#   </sensor>
#   <sensor Channel="3" >
#     <!-- Count, Pressure, Strain Gauge -->
#     <PressureSensor SensorID="46" >
#       <SerialNumber>4530</SerialNumber>
#       <CalibrationDate>02-Dec-13</CalibrationDate>
#       <PA0>-3.35712300e-001</PA0>
#       <PA1>1.56795400e-002</PA1>
#       <PA2>-6.60390500e-010</PA2>
#       <PTEMPA0>-6.74611800e+001</PTEMPA0>
#       <PTEMPA1>5.06446900e+001</PTEMPA1>
#       <PTEMPA2>-4.65162800e-001</PTEMPA2>
#       <PTCA0>5.24503600e+005</PTCA0>
#       <PTCA1>-3.17070100e-002</PTCA1>
#       <PTCA2>-4.70494400e-002</PTCA2>
#       <PTCB0>2.49031200e+001</PTCB0>
#       <PTCB1>-5.75000000e-004</PTCB1>
#       <PTCB2>0.00000000e+000</PTCB2>
#       <Offset>0.000000</Offset>
#     </PressureSensor>
#   </sensor>
# </Sensors>
# datcnv_date = May 17 2014 01:14:31, 7.22.2 [datcnv_vars = 4]
# datcnv_in = c:\data\seacat\current\bon050.hex c:\data\seacat\current\bon050.XMLCON
# datcnv_skipover = 0
# filter_date = May 17 2014 01:14:31, 7.22.2
# filter_in = c:\data\seacat\current\bon050.cnv
# filter_low_pass_tc_A = 0.500
# filter_low_pass_tc_B = 2.000
# filter_low_pass_A_vars = prdM tv290C c0mS/cm
# filter_low_pass_B_vars =
# alignctd_date = May 17 2014 01:14:31, 7.22.2
# alignctd_in = c:\data\seacat\current\bon050.cnv
# alignctd_adv = tv290C 0.500                                                                                                                                                                                                        
# wildedit_date = May 17 2014 01:14:31, 7.22.2
# wildedit_in = c:\data\seacat\current\bon050.cnv
# wildedit_pass1_nstd = 2.0
# wildedit_pass2_nstd = 15.0
# wildedit_pass2_mindelta = 1.000e-002
# wildedit_npoint = 100
# wildedit_vars = prdM tv290C c0mS/cm
# wildedit_excl_bad_scans = yes
# binavg_date = May 17 2014 01:14:32, 7.22.2
# binavg_in = c:\data\seacat\current\bon050.cnv
# binavg_bintype = decibars
# binavg_binsize = 1
# binavg_excl_bad_scans = yes
# binavg_skipover = 0
# binavg_surface_bin = no, min = 0.000, max = 0.500, value = 0.000
# Derive_date = May 17 2014 01:14:32, 7.22.2 [derive_vars = 2]
# Derive_in = c:\data\seacat\current\bon050.cnv c:\data\seacat\current\BON050.XMLcon
# file_type = ascii
*END*
    285.528      1.000     5.9307  28.142869    28.1173    22.1267 0.0000e+00
    288.485      2.000     6.0531  31.732687    31.9874    25.1663 0.0000e+00
    295.272      3.000     5.9487  31.796239    32.1569    25.3128 0.0000e+00
    298.059      4.000     5.8960  31.756164    32.1616    25.3228 0.0000e+00
    300.007      5.000     5.9198  31.729965    32.1091    25.2785 0.0000e+00
    302.240      6.000     5.9481  31.737111    32.0898    25.2599 0.0000e+00
    304.150      7.000     5.8936  31.720145    32.1220    25.2919 0.0000e+00
    306.192      8.000     5.8788  31.723370    32.1393    25.3072 0.0000e+00
    308.292      9.000     5.9012  31.700799    32.0922    25.2674 0.0000e+00
    310.544     10.000     5.8761  31.692264    32.1060    25.2813 0.0000e+00
    312.671     11.000     5.8659  31.671714    32.0921    25.2716 0.0000e+00
    315.176     12.000     5.8140  31.684682    32.1556    25.3279 0.0000e+00
    317.334     13.000     5.7546  31.670893    32.1962    25.3670 0.0000e+00
    319.692     14.000     5.7574  31.673194    32.1957    25.3663 0.0000e+00
    321.992     15.000     5.6843  31.668454    32.2597    25.4255 0.0000e+00
    323.895     16.000     5.3003  31.464056    32.3973    25.5787 0.0000e+00
    326.040     17.000     4.7253  31.003502    32.4275    25.6660 0.0000e+00
    328.273     18.000     4.6925  30.995996    32.4505    25.6877 0.0000e+00
    330.156     19.000     4.6892  30.994958    32.4520    25.6892 0.0000e+00
    331.973     20.000     4.6838  30.995534    32.4574    25.6941 0.0000e+00
    334.037     21.000     4.6708  30.993264    32.4670    25.7031 0.0000e+00
    336.082     22.000     4.6461  30.990248    32.4873    25.7218 0.0000e+00
    337.943     23.000     4.6355  30.990510    32.4975    25.7310 0.0000e+00
    339.768     24.000     4.6307  30.995085    32.5070    25.7391 0.0000e+00
    341.827     25.000     4.6300  30.997185    32.5096    25.7412 0.0000e+00
    343.922     26.000     4.6305  30.997742    32.5092    25.7409 0.0000e+00
    345.861     27.000     4.6306  30.998203    32.5092    25.7408 0.0000e+00
    347.891     28.000     4.6300  30.998417    32.5095    25.7411 0.0000e+00
    350.142     29.000     4.6277  30.999437    32.5124    25.7437 0.0000e+00
    352.500     30.000     4.6248  31.000105    32.5156    25.7465 0.0000e+00
    354.602     31.000     4.6230  31.001574    32.5185    25.7490 0.0000e+00
    356.548     32.000     4.6216  31.004167    32.5224    25.7523 0.0000e+00
    358.858     33.000     4.6193  31.008538    32.5292    25.7579 0.0000e+00
    360.796     34.000     4.6180  31.016881    32.5397    25.7663 0.0000e+00
    362.780     35.000     4.6188  31.022022    32.5444    25.7700 0.0000e+00
    365.102     36.000     4.6167  31.026510    32.5511    25.7756 0.0000e+00
    367.073     37.000     4.6164  31.036284    32.5623    25.7844 0.0000e+00
    369.056     38.000     4.6326  31.078501    32.5948    25.8085 0.0000e+00
    371.107     39.000     4.6405  31.110059    32.6231    25.8302 0.0000e+00
    373.111     40.000     4.6439  31.120414    32.6313    25.8363 0.0000e+00
    375.079     41.000     4.6443  31.123903    32.6344    25.8387 0.0000e+00
    377.161     42.000     4.6405  31.124921    32.6389    25.8426 0.0000e+00
    379.261     43.000     4.6326  31.124544    32.6457    25.8489 0.0000e+00
    381.086     44.000     4.6231  31.124613    32.6546    25.8570 0.0000e+00
    382.935     45.000     4.6199  31.124603    32.6573    25.8594 0.0000e+00
    385.054     46.000     4.6191  31.124870    32.6579    25.8600 0.0000e+00
    387.173     47.000     4.6166  31.124948    32.6599    25.8619 0.0000e+00
    389.119     48.000     4.6114  31.127553    32.6676    25.8685 0.0000e+00
    391.171     49.000     4.6137  31.133515    32.6717    25.8715 0.0000e+00
    393.483     50.000     4.6151  31.137516    32.6745    25.8736 0.0000e+00
    395.571     51.000     4.6163  31.146750    32.6835    25.8806 0.0000e+00
    397.485     52.000     4.6085  31.150640    32.6952    25.8907 0.0000e+00
    399.815     53.000     4.5970  31.148196    32.7032    25.8983 0.0000e+00
    402.184     54.000     4.5928  31.146507    32.7049    25.9001 0.0000e+00
    404.105     55.000     4.5829  31.139851    32.7064    25.9024 0.0000e+00
    406.153     56.000     4.5767  31.136087    32.7077    25.9040 0.0000e+00
    408.411     57.000     4.5754  31.136921    32.7094    25.9055 0.0000e+00
    410.346     58.000     4.5581  31.126147    32.7135    25.9106 0.0000e+00
    412.046     59.000     4.5267  31.104121    32.7184    25.9178 0.0000e+00
    413.958     60.000     4.4750  31.065414    32.7241    25.9277 0.0000e+00
    415.983     61.000     4.4444  31.043534    32.7284    25.9343 0.0000e+00
    417.883     62.000     4.4131  31.022690    32.7346    25.9425 0.0000e+00
    419.829     63.000     4.3670  30.994164    32.7465    25.9567 0.0000e+00
    422.040     64.000     4.3583  30.995630    32.7564    25.9654 0.0000e+00
    424.290     65.000     4.3528  30.998966    32.7652    25.9730 0.0000e+00
    426.338     66.000     4.3398  30.995388    32.7734    25.9809 0.0000e+00
    428.694     67.000     4.3239  30.986476    32.7783    25.9864 0.0000e+00
    430.935     68.000     4.3207  30.985046    32.7793    25.9876 0.0000e+00
    433.143     69.000     4.3156  30.983215    32.7817    25.9900 0.0000e+00
    435.094     70.000     4.3039  30.977744    32.7865    25.9950 0.0000e+00
    436.871     71.000     4.3014  30.986775    32.7990    26.0052 0.0000e+00
    438.801     72.000     4.3025  30.998254    32.8108    26.0145 0.0000e+00
    440.678     73.000     4.2695  30.973781    32.8145    26.0208 0.0000e+00
    442.498     74.000     4.2082  30.922089    32.8145    26.0270 0.0000e+00
    444.282     75.000     4.1717  30.890470    32.8133    26.0298 0.0000e+00
    446.281     76.000     4.1643  30.884858    32.8136    26.0307 0.0000e+00
    448.415     77.000     4.1611  30.882627    32.8136    26.0311 0.0000e+00
    450.511     78.000     4.1605  30.882435    32.8135    26.0310 0.0000e+00
    452.732     79.000     4.1595  30.882634    32.8142    26.0317 0.0000e+00
    454.913     80.000     4.1568  30.882950    32.8168    26.0340 0.0000e+00
    457.132     81.000     4.1541  30.882799    32.8188    26.0359 0.0000e+00
    459.221     82.000     4.1527  30.882895    32.8198    26.0368 0.0000e+00
    461.200     83.000     4.1513  30.883246    32.8211    26.0380 0.0000e+00
    463.300     84.000     4.1500  30.883872    32.8226    26.0393 0.0000e+00
    465.274     85.000     4.1498  30.885490    32.8242    26.0406 0.0000e+00
    467.142     86.000     4.1503  30.887487    32.8255    26.0416 0.0000e+00
    469.153     87.000     4.1523  30.891426    32.8276    26.0431 0.0000e+00
    471.047     88.000     4.1555  30.897776    32.8314    26.0457 0.0000e+00
    473.012     89.000     4.1614  30.906151    32.8348    26.0479 0.0000e+00
    475.045     90.000     4.1673  30.913155    32.8366    26.0487 0.0000e+00
    477.032     91.000     4.1724  30.919481    32.8384    26.0496 0.0000e+00
    478.965     92.000     4.1767  30.924821    32.8399    26.0504 0.0000e+00
    480.868     93.000     4.1819  30.930792    32.8412    26.0509 0.0000e+00
    482.844     94.000     4.1884  30.938222    32.8429    26.0516 0.0000e+00
    484.819     95.000     4.1914  30.941939    32.8438    26.0520 0.0000e+00
    486.713     96.000     4.2122  30.964320    32.8488    26.0538 0.0000e+00
    488.611     97.000     4.2712  31.028982    32.8652    26.0608 0.0000e+00
    490.690     98.000     4.2953  31.060021    32.8770    26.0677 0.0000e+00
    492.645     99.000     4.2758  31.047265    32.8810    26.0729 0.0000e+00
    494.433    100.000     4.2484  31.027116    32.8842    26.0783 0.0000e+00
    496.396    101.000     4.2212  31.009634    32.8904    26.0860 0.0000e+00
    498.474    102.000     4.2051  31.001017    32.8959    26.0920 0.0000e+00
    500.262    103.000     4.2031  31.003124    32.8998    26.0953 0.0000e+00
    502.136    104.000     4.2032  31.006557    32.9032    26.0980 0.0000e+00
    504.090    105.000     4.2023  31.012598    32.9107    26.1040 0.0000e+00
    505.941    106.000     4.2016  31.016758    32.9158    26.1081 0.0000e+00
    507.717    107.000     4.2016  31.018080    32.9168    26.1090 0.0000e+00
    509.664    108.000     4.2016  31.018699    32.9170    26.1091 0.0000e+00
    511.594    109.000     4.2018  31.019722    32.9175    26.1095 0.0000e+00
    513.502    110.000     4.2019  31.020362    32.9176    26.1096 0.0000e+00
    515.523    111.000     4.2014  31.020742    32.9181    26.1100 0.0000e+00
    517.454    112.000     4.2001  31.020912    32.9191    26.1109 0.0000e+00
    519.156    113.000     4.1992  31.021265    32.9199    26.1116 0.0000e+00
    521.101    114.000     4.1983  31.022219    32.9214    26.1129 0.0000e+00
    523.256    115.000     4.1907  31.018979    32.9246    26.1163 0.0000e+00
    525.200    116.000     4.1725  31.006877    32.9281    26.1209 0.0000e+00
    527.163    117.000     4.1512  30.995451    32.9355    26.1289 0.0000e+00
    529.040    118.000     4.1464  30.995691    32.9401    26.1331 0.0000e+00
    531.014    119.000     4.1492  31.000918    32.9429    26.1350 0.0000e+00
    532.985    120.000     4.1548  31.009076    32.9464    26.1372 0.0000e+00
    534.767    121.000     4.1554  31.010896    32.9474    26.1380 0.0000e+00
    536.557    122.000     4.1516  31.008179    32.9475    26.1384 0.0000e+00
    538.405    123.000     4.1461  31.003808    32.9474    26.1389 0.0000e+00
    540.453    124.000     4.1436  31.003026    32.9484    26.1400 0.0000e+00
    542.372    125.000     4.1527  31.015005    32.9529    26.1426 0.0000e+00
    544.038    126.000     4.1681  31.032714    32.9577    26.1449 0.0000e+00
    545.873    127.000     4.1727  31.038485    32.9594    26.1457 0.0000e+00
    547.867    128.000     4.1725  31.041710    32.9629    26.1485 0.0000e+00
    549.765    129.000     4.1668  31.041027    32.9673    26.1526 0.0000e+00
    551.654    130.000     4.1585  31.038352    32.9719    26.1571 0.0000e+00
    553.592    131.000     4.1580  31.041268    32.9753    26.1599 0.0000e+00
    555.557    132.000     4.1577  31.042804    32.9769    26.1612 0.0000e+00
    557.650    133.000     4.1535  31.041573    32.9792    26.1634 0.0000e+00
    559.580    134.000     4.1488  31.039266    32.9807    26.1651 0.0000e+00
    561.448    135.000     4.1465  31.038211    32.9812    26.1657 0.0000e+00
    563.436    136.000     4.1463  31.038910    32.9817    26.1662 0.0000e+00
    565.408    137.000     4.1463  31.040134    32.9826    26.1669 0.0000e+00
    567.353    138.000     4.1469  31.042068    32.9838    26.1678 0.0000e+00
    569.264    139.000     4.1474  31.043912    32.9850    26.1686 0.0000e+00
    571.270    140.000     4.1466  31.044642    32.9861    26.1696 0.0000e+00
    573.336    141.000     4.1441  31.044110    32.9875    26.1709 0.0000e+00
    575.122    142.000     4.1426  31.043902    32.9882    26.1717 0.0000e+00
    576.995    143.000     4.1387  31.041771    32.9891    26.1728 0.0000e+00
    578.879    144.000     4.1235  31.030078    32.9901    26.1751 0.0000e+00
    580.587    145.000     4.1173  31.026805    32.9919    26.1772 0.0000e+00
    582.467    146.000     4.1174  31.027946    32.9927    26.1778 0.0000e+00
    584.540    147.000     4.1178  31.029025    32.9930    26.1780 0.0000e+00
    586.297    148.000     4.1179  31.030273    32.9939    26.1787 0.0000e+00
    588.041    149.000     4.1167  31.030002    32.9942    26.1791 0.0000e+00
    589.954    150.000     4.1144  31.028780    32.9946    26.1796 0.0000e+00
    591.872    151.000     4.1111  31.027147    32.9955    26.1806 0.0000e+00
    593.698    152.000     4.1053  31.023910    32.9970    26.1824 0.0000e+00
    595.436    153.000     4.0975  31.018479    32.9979    26.1839 0.0000e+00
    597.371    154.000     4.0853  31.008379    32.9977    26.1850 0.0000e+00
    599.482    155.000     4.0837  31.008093    32.9985    26.1858 0.0000e+00
    601.400    156.000     4.0881  31.012980    32.9993    26.1860 0.0000e+00
    603.173    157.000     4.0899  31.015207    32.9996    26.1861 0.0000e+00
    604.920    158.000     4.0928  31.018844    33.0004    26.1864 0.0000e+00
    606.841    159.000     4.0986  31.025773    33.0023    26.1873 0.0000e+00
    608.805    160.000     4.1058  31.034384    33.0047    26.1885 0.0000e+00
    610.655    161.000     4.1089  31.038079    33.0054    26.1887 0.0000e+00
    612.506    162.000     4.1094  31.039618    33.0062    26.1893 0.0000e+00
    614.355    163.000     4.1084  31.039917    33.0070    26.1901 0.0000e+00
    616.069    164.000     4.1074  31.040005    33.0076    26.1907 0.0000e+00
    617.840    165.000     4.1068  31.040100    33.0078    26.1909 0.0000e+00
    619.535    166.000     4.1057  31.039829    33.0081    26.1912 0.0000e+00
    621.258    167.000     4.1034  31.038780    33.0086    26.1919 0.0000e+00
    623.103    168.000     4.1008  31.037756    33.0095    26.1928 0.0000e+00
    624.833    169.000     4.0978  31.035736    33.0096    26.1932 0.0000e+00
    626.493    170.000     4.0953  31.034255    33.0099    26.1937 0.0000e+00
    628.305    171.000     4.0878  31.029310    33.0111    26.1954 0.0000e+00
    630.234    172.000     4.0771  31.021902    33.0126    26.1977 0.0000e+00
    632.200    173.000     4.0722  31.018891    33.0134    26.1988 0.0000e+00
    634.003    174.000     4.0674  31.015245    33.0135    26.1993 0.0000e+00
    635.821    175.000     4.0640  31.012850    33.0135    26.1997 0.0000e+00
    637.691    176.000     4.0594  31.009545    33.0138    26.2004 0.0000e+00
    639.729    177.000     4.0504  31.002432    33.0139    26.2014 0.0000e+00
    641.641    178.000     4.0401  30.994890    33.0148    26.2032 0.0000e+00
    643.329    179.000     4.0379  30.994850    33.0165    26.2047 0.0000e+00
    645.076    180.000     4.0301  30.989613    33.0176    26.2064 0.0000e+00
    646.914    181.000     4.0160  30.978729    33.0185    26.2085 0.0000e+00
    648.587    182.000     4.0088  30.973474    33.0190    26.2096 0.0000e+00
    650.078    183.000     4.0062  30.972201    33.0196    26.2103 0.0000e+00
    651.689    184.000     4.0056  30.972657    33.0202    26.2109 0.0000e+00
    653.703    185.000     4.0086  30.976474    33.0212    26.2114 0.0000e+00
    655.455    186.000     4.0229  30.993043    33.0258    26.2136 0.0000e+00
    657.120    187.000     4.0130  30.985686    33.0266    26.2152 0.0000e+00
    659.055    188.000     3.9967  30.972131    33.0265    26.2168 0.0000e+00
    661.049    189.000     3.9860  30.964952    33.0283    26.2192 0.0000e+00
    663.071    190.000     3.9784  30.960675    33.0304    26.2217 0.0000e+00
    664.961    191.000     3.9738  30.958134    33.0315    26.2230 0.0000e+00
    666.748    192.000     3.9713  30.957019    33.0322    26.2238 0.0000e+00
    668.689    193.000     3.9699  30.956605    33.0326    26.2243 0.0000e+00
    670.504    194.000     3.9693  30.956617    33.0327    26.2244 0.0000e+00
    672.150    195.000     3.9689  30.956837    33.0328    26.2245 0.0000e+00
    673.894    196.000     3.9679  30.956710    33.0331    26.2249 0.0000e+00
    675.707    197.000     3.9649  30.955636    33.0344    26.2262 0.0000e+00
    677.389    198.000     3.9606  30.953933    33.0362    26.2281 0.0000e+00
    679.036    199.000     3.9592  30.953781    33.0369    26.2288 0.0000e+00
    680.819    200.000     3.9593  30.955046    33.0378    26.2294 0.0000e+00
    682.716    201.000     3.9629  30.960310    33.0398    26.2307 0.0000e+00
    684.341    202.000     3.9687  30.967321    33.0418    26.2317 0.0000e+00
    685.974    203.000     3.9738  30.972566    33.0423    26.2316 0.0000e+00
    687.728    204.000     3.9904  30.989856    33.0455    26.2325 0.0000e+00
    689.554    205.000     4.0081  31.008846    33.0495    26.2340 0.0000e+00
    691.411    206.000     4.0130  31.014885    33.0512    26.2348 0.0000e+00
    693.112    207.000     4.0161  31.020412    33.0541    26.2368 0.0000e+00
    694.833    208.000     4.0149  31.021356    33.0559    26.2383 0.0000e+00
    696.771    209.000     4.0085  31.016061    33.0556    26.2387 0.0000e+00
    698.642    210.000     3.9996  31.008342    33.0549    26.2391 0.0000e+00
    700.311    211.000     3.9861  30.996409    33.0539    26.2396 0.0000e+00
    702.192    212.000     3.9755  30.987695    33.0538    26.2406 0.0000e+00
    704.139    213.000     3.9720  30.985882    33.0547    26.2416 0.0000e+00
    705.915    214.000     3.9654  30.981223    33.0553    26.2428 0.0000e+00
    707.641    215.000     3.9588  30.977334    33.0568    26.2447 0.0000e+00
    709.307    216.000     3.9590  30.979114    33.0582    26.2457 0.0000e+00
    711.150    217.000     3.9656  30.986839    33.0602    26.2466 0.0000e+00
    713.055    218.000     3.9682  30.989872    33.0606    26.2467 0.0000e+00
    714.835    219.000     3.9861  31.009312    33.0650    26.2485 0.0000e+00
    716.597    220.000     4.0116  31.040380    33.0755    26.2542 0.0000e+00
    718.523    221.000     4.0028  31.035423    33.0780    26.2571 0.0000e+00
    720.287    222.000     3.9950  31.030451    33.0794    26.2590 0.0000e+00
    722.081    223.000     3.9963  31.033308    33.0810    26.2601 0.0000e+00
    724.079    224.000     3.9996  31.038050    33.0827    26.2612 0.0000e+00
    725.937    225.000     3.9991  31.038435    33.0832    26.2616 0.0000e+00
    727.635    226.000     4.0058  31.049353    33.0888    26.2654 0.0000e+00
    729.530    227.000     4.0111  31.060034    33.0955    26.2702 0.0000e+00
    731.378    228.000     4.0085  31.059030    33.0965    26.2712 0.0000e+00
    733.152    229.000     4.0063  31.058343    33.0973    26.2721 0.0000e+00
    734.887    230.000     4.0032  31.057648    33.0991    26.2739 0.0000e+00
    736.788    231.000     3.9958  31.053565    33.1013    26.2763 0.0000e+00
    738.764    232.000     3.9908  31.051393    33.1032    26.2784 0.0000e+00
    740.503    233.000     3.9902  31.052762    33.1049    26.2798 0.0000e+00
    742.262    234.000     3.9884  31.052738    33.1062    26.2810 0.0000e+00
    744.095    235.000     3.9878  31.052798    33.1064    26.2812 0.0000e+00
    745.933    236.000     3.9859  31.052530    33.1074    26.2822 0.0000e+00
    747.858    237.000     3.9755  31.045997    33.1097    26.2850 0.0000e+00
    749.604    238.000     3.9484  31.022955    33.1093    26.2874 0.0000e+00
    751.384    239.000     3.9229  31.001275    33.1089    26.2896 0.0000e+00
    753.346    240.000     3.9156  30.995860    33.1094    26.2907 0.0000e+00
    755.249    241.000     3.9045  30.986510    33.1090    26.2915 0.0000e+00
    756.894    242.000     3.8875  30.971496    33.1079    26.2923 0.0000e+00
    758.614    243.000     3.8804  30.965667    33.1077    26.2928 0.0000e+00
    760.606    244.000     3.8793  30.965159    33.1076    26.2929 0.0000e+00
    762.410    245.000     3.8802  30.966333    33.1076    26.2928 0.0000e+00
    764.042    246.000     3.8776  30.964702    33.1078    26.2932 0.0000e+00
    765.792    247.000     3.8697  30.958226    33.1076    26.2938 0.0000e+00
    767.713    248.000     3.8666  30.956224    33.1078    26.2943 0.0000e+00
    769.536    249.000     3.8648  30.955109    33.1078    26.2945 0.0000e+00
    771.272    250.000     3.8645  30.955289    33.1078    26.2945 0.0000e+00
    772.980    251.000     3.8641  30.955375    33.1078    26.2945 0.0000e+00
    774.709    252.000     3.8590  30.951380    33.1077    26.2950 0.0000e+00
    776.537    253.000     3.8536  30.947172    33.1077    26.2955 0.0000e+00
    778.425    254.000     3.8502  30.944951    33.1079    26.2960 0.0000e+00
    780.224    255.000     3.8480  30.943752    33.1082    26.2965 0.0000e+00
    782.105    256.000     3.8466  30.943389    33.1087    26.2970 0.0000e+00
    784.291    257.000     3.8461  30.943614    33.1089    26.2972 0.0000e+00
    786.246    258.000     3.8449  30.943073    33.1090    26.2974 0.0000e+00
    788.436    259.000     3.8443  30.943139    33.1092    26.2976 0.0000e+00
    790.412    260.000     3.8433  30.942843    33.1093    26.2978 0.0000e+00
    792.307    261.000     3.8432  30.943244    33.1094    26.2978 0.0000e+00
    794.433    262.000     3.8437  30.944059    33.1093    26.2977 0.0000e+00
    796.211    263.000     3.8385  30.940691    33.1101    26.2988 0.0000e+00
    797.804    264.000     3.8296  30.934336    33.1110    26.3005 0.0000e+00
    799.779    265.000     3.8228  30.929749    33.1119    26.3019 0.0000e+00
    801.624    266.000     3.8173  30.926225    33.1128    26.3031 0.0000e+00
    803.326    267.000     3.8097  30.920919    33.1137    26.3045 0.0000e+00
    805.249    268.000     3.8031  30.916757    33.1149    26.3062 0.0000e+00
    807.204    269.000     3.7986  30.914468    33.1162    26.3076 0.0000e+00
    808.980    270.000     3.7965  30.913578    33.1168    26.3083 0.0000e+00
    811.162    271.000     3.7940  30.912171    33.1171    26.3088 0.0000e+00
    813.424    272.000     3.7898  30.909827    33.1181    26.3100 0.0000e+00
    815.443    273.000     3.7858  30.907926    33.1193    26.3114 0.0000e+00
    817.554    274.000     3.7757  30.901111    33.1210    26.3136 0.0000e+00
    819.645    275.000     3.7653  30.893682    33.1221    26.3156 0.0000e+00
    821.394    276.000     3.7610  30.891245    33.1231    26.3168 0.0000e+00
    823.161    277.000     3.7587  30.890469    33.1240    26.3177 0.0000e+00
    825.223    278.000     3.7537  30.887726    33.1253    26.3192 0.0000e+00
    827.196    279.000     3.7387  30.876646    33.1268    26.3219 0.0000e+00
    829.121    280.000     3.7103  30.853732    33.1278    26.3254 0.0000e+00
    830.985    281.000     3.6958  30.843337    33.1296    26.3283 0.0000e+00
    832.826    282.000     3.6840  30.835325    33.1315    26.3309 0.0000e+00
    834.966    283.000     3.6799  30.832989    33.1324    26.3320 0.0000e+00
    836.936    284.000     3.6781  30.832064    33.1326    26.3323 0.0000e+00
    838.769    285.000     3.6753  30.830570    33.1332    26.3330 0.0000e+00
    840.748    286.000     3.6725  30.829113    33.1337    26.3338 0.0000e+00
    842.916    287.000     3.6701  30.827626    33.1339    26.3341 0.0000e+00
    844.944    288.000     3.6667  30.825545    33.1343    26.3348 0.0000e+00
    846.894    289.000     3.6610  30.822275    33.1357    26.3364 0.0000e+00
    848.810    290.000     3.6426  30.811598    33.1411    26.3425 0.0000e+00
    850.967    291.000     3.6203  30.798437    33.1476    26.3498 0.0000e+00
    853.052    292.000     3.6106  30.792393    33.1497    26.3524 0.0000e+00
    855.051    293.000     3.6080  30.792114    33.1515    26.3541 0.0000e+00
    857.182    294.000     3.6087  30.795369    33.1542    26.3561 0.0000e+00
    859.100    295.000     3.6132  30.803007    33.1582    26.3589 0.0000e+00
    861.147    296.000     3.6134  30.806799    33.1620    26.3619 0.0000e+00
    863.409    297.000     3.6114  30.807929    33.1648    26.3644 0.0000e+00
    865.506    298.000     3.6104  30.812266    33.1705    26.3690 0.0000e+00
    867.401    299.000     3.6124  30.817037    33.1736    26.3713 0.0000e+00
    869.466    300.000     3.6088  30.815581    33.1750    26.3727 0.0000e+00
    871.729    301.000     3.6015  30.809985    33.1752    26.3736 0.0000e+00
    873.795    302.000     3.5969  30.807183    33.1761    26.3747 0.0000e+00
    875.950    303.000     3.5896  30.801404    33.1761    26.3754 0.0000e+00
    880.777    304.000     3.5954  30.809420    33.1792    26.3773 0.0000e+00
    884.803    303.000     3.5905  30.802148    33.1760    26.3753 0.0000e+00
    888.645    302.000     3.5984  30.808096    33.1756    26.3742 0.0000e+00
    890.640    301.000     3.6052  30.812892    33.1750    26.3730 0.0000e+00
    892.553    300.000     3.6113  30.817080    33.1743    26.3719 0.0000e+00
    894.427    299.000     3.6120  30.814479    33.1710    26.3692 0.0000e+00
    896.404    298.000     3.6127  30.809376    33.1647    26.3641 0.0000e+00
    898.511    297.000     3.6152  30.806451    33.1592    26.3595 0.0000e+00
    900.344    296.000     3.6137  30.802226    33.1562    26.3573 0.0000e+00
    902.158    295.000     3.6103  30.795690    33.1524    26.3546 0.0000e+00
    904.313    294.000     3.6121  30.794065    33.1491    26.3518 0.0000e+00
    906.470    293.000     3.6213  30.799696    33.1470    26.3492 0.0000e+00
    908.356    292.000     3.6398  30.810051    33.1411    26.3428 0.0000e+00
    910.586    291.000     3.6564  30.819037    33.1355    26.3367 0.0000e+00
    913.311    290.000     3.6619  30.822065    33.1340    26.3350 0.0000e+00
    915.477    289.000     3.6646  30.823770    33.1338    26.3346 0.0000e+00
    917.672    288.000     3.6691  30.826610    33.1332    26.3336 0.0000e+00
    920.069    287.000     3.6709  30.827382    33.1328    26.3332 0.0000e+00
    922.288    286.000     3.6722  30.828013    33.1327    26.3330 0.0000e+00
    924.513    285.000     3.6761  30.830096    33.1318    26.3319 0.0000e+00
    926.515    284.000     3.6790  30.831582    33.1311    26.3311 0.0000e+00
    928.440    283.000     3.6830  30.833848    33.1303    26.3300 0.0000e+00
    930.426    282.000     3.6880  30.836658    33.1291    26.3286 0.0000e+00
    932.341    281.000     3.6929  30.839590    33.1281    26.3273 0.0000e+00
    934.452    280.000     3.7012  30.845488    33.1272    26.3258 0.0000e+00
    936.561    279.000     3.7206  30.860470    33.1259    26.3229 0.0000e+00
    938.787    278.000     3.7309  30.867790    33.1247    26.3209 0.0000e+00
    941.514    277.000     3.7360  30.871414    33.1243    26.3202 0.0000e+00
    944.145    276.000     3.7452  30.877933    33.1233    26.3184 0.0000e+00
    946.916    275.000     3.7553  30.885264    33.1223    26.3167 0.0000e+00
    949.333    274.000     3.7739  30.900271    33.1218    26.3145 0.0000e+00
    951.654    273.000     3.7956  30.917358    33.1206    26.3114 0.0000e+00
    953.983    272.000     3.7932  30.912888    33.1183    26.3098 0.0000e+00
    956.457    271.000     3.7911  30.909870    33.1173    26.3092 0.0000e+00
    958.722    270.000     3.7927  30.910103    33.1165    26.3084 0.0000e+00
    961.050    269.000     3.7975  30.913375    33.1160    26.3076 0.0000e+00
    963.525    268.000     3.8015  30.915544    33.1151    26.3065 0.0000e+00
    965.837    267.000     3.8062  30.918909    33.1148    26.3058 0.0000e+00
    968.288    266.000     3.8107  30.922193    33.1147    26.3052 0.0000e+00
    970.833    265.000     3.8187  30.928456    33.1145    26.3043 0.0000e+00
    973.386    264.000     3.8415  30.947400    33.1145    26.3020 0.0000e+00
    975.734    263.000     3.8635  30.966221    33.1150    26.3003 0.0000e+00
    978.438    262.000     3.8677  30.969606    33.1153    26.3002 0.0000e+00
    981.045    261.000     3.8696  30.970912    33.1154    26.3001 0.0000e+00
    983.495    260.000     3.8803  30.980316    33.1163    26.2997 0.0000e+00
    986.060    259.000     3.8837  30.982670    33.1162    26.2993 0.0000e+00
    989.062    258.000     3.8919  30.989486    33.1164    26.2987 0.0000e+00
    991.473    257.000     3.9054  31.001111    33.1171    26.2979 0.0000e+00
    994.345    256.000     3.9153  31.009863    33.1179    26.2976 0.0000e+00
    997.052    255.000     3.9145  31.008015    33.1171    26.2970 0.0000e+00
    999.666    254.000     3.9110  31.003758    33.1161    26.2965 0.0000e+00
   1002.222    253.000     3.9145  31.006485    33.1163    26.2964 0.0000e+00
   1005.011    252.000     3.9202  31.011358    33.1168    26.2962 0.0000e+00
   1007.393    251.000     3.9184  31.008278    33.1155    26.2953 0.0000e+00
   1010.104    250.000     3.9196  31.008278    33.1148    26.2947 0.0000e+00
   1013.045    249.000     3.9260  31.012964    33.1144    26.2937 0.0000e+00
   1015.767    248.000     3.9347  31.019449    33.1138    26.2924 0.0000e+00
   1018.900    247.000     3.9417  31.024225    33.1129    26.2910 0.0000e+00
   1022.227    246.000     3.9495  31.030757    33.1133    26.2905 0.0000e+00
   1025.623    245.000     3.9627  31.041187    33.1128    26.2888 0.0000e+00
   1029.234    244.000     3.9739  31.049537    33.1119    26.2869 0.0000e+00
   1032.465    243.000     3.9832  31.055893    33.1105    26.2849 0.0000e+00
   1035.653    242.000     3.9841  31.055679    33.1099    26.2843 0.0000e+00
   1038.799    241.000     3.9835  31.054457    33.1095    26.2841 0.0000e+00
   1042.242    240.000     3.9839  31.054551    33.1098    26.2843 0.0000e+00
   1045.516    239.000     3.9814  31.051707    33.1095    26.2843 0.0000e+00
   1049.012    238.000     3.9766  31.046584    33.1088    26.2842 0.0000e+00
   1052.346    237.000     3.9724  31.041685    33.1077    26.2838 0.0000e+00
   1055.483    236.000     3.9683  31.036335    33.1061    26.2829 0.0000e+00
   1059.328    235.000     3.9675  31.034525    33.1053    26.2823 0.0000e+00
   1062.613    234.000     3.9722  31.036529    33.1034    26.2804 0.0000e+00
   1065.827    233.000     3.9789  31.040222    33.1015    26.2782 0.0000e+00
   1069.517    232.000     3.9798  31.040179    33.1011    26.2778 0.0000e+00
   1073.102    231.000     3.9812  31.040424    33.1005    26.2771 0.0000e+00
   1076.635    230.000     3.9860  31.041381    33.0973    26.2741 0.0000e+00
   1080.026    229.000     3.9745  31.023140    33.0879    26.2678 0.0000e+00
   1083.579    228.000     3.9237  30.967935    33.0744    26.2621 0.0000e+00
   1086.965    227.000     3.9153  30.959006    33.0728    26.2617 0.0000e+00
   1090.666    226.000     3.9075  30.949862    33.0704    26.2605 0.0000e+00
   1094.559    225.000     3.9028  30.944027    33.0688    26.2597 0.0000e+00
   1098.411    224.000     3.9019  30.941679    33.0674    26.2587 0.0000e+00
   1102.662    223.000     3.9024  30.939563    33.0649    26.2567 0.0000e+00
   1106.857    222.000     3.9024  30.938080    33.0637    26.2557 0.0000e+00
   1111.137    221.000     3.9018  30.935889    33.0622    26.2546 0.0000e+00
   1115.303    220.000     3.9038  30.935471    33.0602    26.2528 0.0000e+00
   1119.798    219.000     3.9102  30.939466    33.0590    26.2512 0.0000e+00
   1123.718    218.000     3.9112  30.938998    33.0580    26.2503 0.0000e+00
   1127.962    217.000     3.9150  30.940883    33.0569    26.2490 0.0000e+00
   1131.857    216.000     3.9167  30.941551    33.0565    26.2485 0.0000e+00
   1135.920    215.000     3.9164  30.940255    33.0558    26.2480 0.0000e+00
   1140.132    214.000     3.9149  30.937870    33.0550    26.2475 0.0000e+00
   1143.878    213.000     3.9156  30.936725    33.0534    26.2462 0.0000e+00
   1148.242    212.000     3.9148  30.934794    33.0525    26.2455 0.0000e+00
   1152.115    211.000     3.9124  30.931036    33.0510    26.2446 0.0000e+00
   1156.231    210.000     3.9114  30.929005    33.0501    26.2440 0.0000e+00
   1160.639    209.000     3.9138  30.925479    33.0440    26.2389 0.0000e+00
   1164.399    208.000     3.9214  30.932690    33.0454    26.2393 0.0000e+00
   1168.940    207.000     3.9262  30.936303    33.0453    26.2388 0.0000e+00
   1173.054    206.000     3.9273  30.936622    33.0451    26.2385 0.0000e+00
   1177.538    205.000     3.9275  30.935669    33.0443    26.2378 0.0000e+00
   1182.214    204.000     3.9306  30.936813    33.0431    26.2365 0.0000e+00
   1186.549    203.000     3.9389  30.942250    33.0417    26.2346 0.0000e+00
   1191.640    202.000     3.9432  30.944684    33.0407    26.2334 0.0000e+00
   1196.111    201.000     3.9472  30.947190    33.0402    26.2325 0.0000e+00
   1201.185    200.000     3.9521  30.950131    33.0392    26.2313 0.0000e+00
   1205.975    199.000     3.9550  30.951609    33.0386    26.2305 0.0000e+00
   1210.731    198.000     3.9573  30.952743    33.0381    26.2299 0.0000e+00
   1215.602    197.000     3.9615  30.955118    33.0372    26.2288 0.0000e+00
   1220.596    196.000     3.9714  30.960932    33.0346    26.2257 0.0000e+00
   1225.212    195.000     3.9888  30.975265    33.0345    26.2239 0.0000e+00
   1229.884    194.000     3.9915  30.977628    33.0351    26.2241 0.0000e+00
   1234.716    193.000     3.9941  30.979629    33.0354    26.2241 0.0000e+00
   1239.098    192.000     3.9952  30.980088    33.0353    26.2239 0.0000e+00
   1243.722    191.000     4.0033  30.987016    33.0359    26.2236 0.0000e+00
   1248.049    190.000     4.0086  30.991425    33.0362    26.2233 0.0000e+00
   1252.537    189.000     4.0180  30.998994    33.0362    26.2224 0.0000e+00
   1256.673    188.000     4.0232  31.002657    33.0358    26.2216 0.0000e+00
   1260.884    187.000     4.0269  31.005064    33.0355    26.2209 0.0000e+00
   1264.640    186.000     4.0282  31.005037    33.0346    26.2201 0.0000e+00
   1268.853    185.000     4.0294  31.005122    33.0341    26.2195 0.0000e+00
   1272.420    184.000     4.0318  31.006299    33.0335    26.2189 0.0000e+00
   1276.025    183.000     4.0342  31.007822    33.0334    26.2186 0.0000e+00
   1279.638    182.000     4.0352  31.008204    33.0334    26.2184 0.0000e+00
   1283.262    181.000     4.0427  31.012001    33.0309    26.2156 0.0000e+00
   1286.935    180.000     4.0544  31.016497    33.0249    26.2097 0.0000e+00
   1290.672    179.000     4.0606  31.019301    33.0225    26.2072 0.0000e+00
   1294.420    178.000     4.0664  31.022610    33.0211    26.2055 0.0000e+00
   1298.643    177.000     4.0703  31.024418    33.0198    26.2041 0.0000e+00
   1302.485    176.000     4.0759  31.027087    33.0178    26.2020 0.0000e+00
   1306.382    175.000     4.0797  31.028940    33.0167    26.2007 0.0000e+00
   1309.801    174.000     4.0797  31.028355    33.0165    26.2006 0.0000e+00
   1313.405    173.000     4.0794  31.027711    33.0166    26.2006 0.0000e+00
   1316.912    172.000     4.0812  31.028428    33.0162    26.2001 0.0000e+00
   1320.477    171.000     4.0845  31.030226    33.0155    26.1992 0.0000e+00
   1323.857    170.000     4.0883  31.032293    33.0146    26.1981 0.0000e+00
   1327.335    169.000     4.0908  31.033832    33.0144    26.1977 0.0000e+00
   1331.060    168.000     4.0926  31.034440    33.0138    26.1971 0.0000e+00
   1334.575    167.000     4.0969  31.036692    33.0127    26.1958 0.0000e+00
   1338.600    166.000     4.1032  31.040980    33.0119    26.1945 0.0000e+00
   1342.092    165.000     4.1041  31.040950    33.0115    26.1941 0.0000e+00
   1345.732    164.000     4.1048  31.041075    33.0115    26.1940 0.0000e+00
   1349.409    163.000     4.1049  31.040711    33.0115    26.1940 0.0000e+00
   1352.779    162.000     4.1048  31.040234    33.0115    26.1940 0.0000e+00
   1356.075    161.000     4.1044  31.039651    33.0117    26.1943 0.0000e+00
   1359.478    160.000     4.1048  31.039402    33.0116    26.1941 0.0000e+00
   1362.946    159.000     4.1075  31.040569    33.0107    26.1931 0.0000e+00
   1366.433    158.000     4.1097  31.040663    33.0092    26.1917 0.0000e+00
   1370.392    157.000     4.1145  31.042147    33.0066    26.1891 0.0000e+00
   1374.533    156.000     4.1152  31.042240    33.0065    26.1890 0.0000e+00
   1378.248    155.000     4.1131  31.040646    33.0073    26.1898 0.0000e+00
   1382.201    154.000     4.1118  31.039313    33.0075    26.1902 0.0000e+00
   1385.473    153.000     4.1137  31.039931    33.0069    26.1894 0.0000e+00
   1389.131    152.000     4.1171  31.040627    33.0048    26.1874 0.0000e+00
   1392.474    151.000     4.1170  31.039857    33.0045    26.1872 0.0000e+00
   1396.150    150.000     4.1168  31.039064    33.0043    26.1871 0.0000e+00
   1399.436    149.000     4.1168  31.037597    33.0031    26.1861 0.0000e+00
   1403.353    148.000     4.1202  31.037744    33.0003    26.1836 0.0000e+00
   1407.364    147.000     4.1234  31.038698    32.9988    26.1820 0.0000e+00
   1411.614    146.000     4.1240  31.038603    32.9986    26.1818 0.0000e+00
   1416.379    145.000     4.1246  31.038471    32.9983    26.1816 0.0000e+00
   1420.803    144.000     4.1249  31.038063    32.9981    26.1813 0.0000e+00
   1425.265    143.000     4.1245  31.036908    32.9976    26.1810 0.0000e+00
   1429.689    142.000     4.1225  31.033103    32.9957    26.1797 0.0000e+00
   1434.052    141.000     4.1236  31.031321    32.9930    26.1774 0.0000e+00
   1438.813    140.000     4.1247  31.030004    32.9909    26.1756 0.0000e+00
   1442.921    139.000     4.1261  31.030294    32.9903    26.1750 0.0000e+00
   1447.058    138.000     4.1265  31.028716    32.9886    26.1736 0.0000e+00
   1451.018    137.000     4.1251  31.025954    32.9872    26.1727 0.0000e+00
   1455.427    136.000     4.1231  31.023293    32.9866    26.1724 0.0000e+00
   1459.595    135.000     4.1163  31.015716    32.9851    26.1718 0.0000e+00
   1464.184    134.000     4.1059  31.000701    32.9784    26.1676 0.0000e+00
   1468.708    133.000     4.1326  31.020952    32.9759    26.1629 0.0000e+00
   1473.499    132.000     4.1413  31.028174    32.9762    26.1623 0.0000e+00
   1478.156    131.000     4.1443  31.030144    32.9760    26.1618 0.0000e+00
   1482.713    130.000     4.1416  31.026691    32.9752    26.1614 0.0000e+00
   1487.316    129.000     4.1434  31.027129    32.9744    26.1606 0.0000e+00
   1492.165    128.000     4.1455  31.028119    32.9740    26.1601 0.0000e+00
   1496.496    127.000     4.1492  31.030274    32.9733    26.1592 0.0000e+00
   1501.299    126.000     4.1471  31.025607    32.9705    26.1571 0.0000e+00
   1506.228    125.000     4.1457  31.018439    32.9639    26.1521 0.0000e+00
   1511.109    124.000     4.1516  31.020926    32.9615    26.1495 0.0000e+00
   1516.565    123.000     4.1427  31.008560    32.9564    26.1464 0.0000e+00
   1521.744    122.000     4.1415  31.003968    32.9527    26.1436 0.0000e+00
   1526.947    121.000     4.1491  31.009318    32.9519    26.1422 0.0000e+00
   1532.526    120.000     4.1523  31.011665    32.9519    26.1419 0.0000e+00
   1538.871    119.000     4.1628  31.019078    32.9506    26.1398 0.0000e+00
   1545.282    118.000     4.1649  31.019147    32.9491    26.1384 0.0000e+00
   1551.473    117.000     4.1606  31.010306    32.9436    26.1344 0.0000e+00
   1557.724    116.000     4.1610  31.003614    32.9358    26.1282 0.0000e+00
   1564.151    115.000     4.1591  30.996072    32.9294    26.1233 0.0000e+00
   1570.965    114.000     4.1590  30.996192    32.9301    26.1239 0.0000e+00
   1577.540    113.000     4.1576  30.990454    32.9253    26.1202 0.0000e+00
   1583.304    112.000     4.1628  30.992064    32.9225    26.1174 0.0000e+00
   1588.642    111.000     4.1807  31.005337    32.9207    26.1142 0.0000e+00
   1593.883    110.000     4.1854  31.008512    32.9202    26.1133 0.0000e+00
   1599.876    109.000     4.1879  31.009997    32.9200    26.1129 0.0000e+00
   1606.273    108.000     4.1916  31.012269    32.9195    26.1121 0.0000e+00
   1612.606    107.000     4.1919  31.012152    32.9196    26.1121 0.0000e+00
   1618.643    106.000     4.1931  31.012958    32.9198    26.1122 0.0000e+00
   1625.001    105.000     4.1972  31.014704    32.9183    26.1106 0.0000e+00
   1630.610    104.000     4.2030  31.013374    32.9114    26.1045 0.0000e+00
   1636.619    103.000     4.2083  31.008173    32.9005    26.0954 0.0000e+00
   1641.856    102.000     4.2095  31.006471    32.8979    26.0931 0.0000e+00
   1647.499    101.000     4.2070  31.000346    32.8937    26.0900 0.0000e+00
   1653.274    100.000     4.2157  30.998639    32.8835    26.0811 0.0000e+00
   1659.335     99.000     4.2381  31.010317    32.8753    26.0723 0.0000e+00
   1664.800     98.000     4.2379  31.003198    32.8677    26.0662 0.0000e+00
   1670.631     97.000     4.2309  30.991425    32.8614    26.0619 0.0000e+00
   1676.017     96.000     4.2060  30.960266    32.8502    26.0556 0.0000e+00
   1681.337     95.000     4.1815  30.931331    32.8412    26.0509 0.0000e+00
   1686.739     94.000     4.1699  30.917706    32.8373    26.0490 0.0000e+00
   1691.919     93.000     4.1666  30.912864    32.8354    26.0478 0.0000e+00
   1696.616     92.000     4.1681  30.912821    32.8344    26.0469 0.0000e+00
   1701.563     91.000     4.1687  30.912685    32.8341    26.0466 0.0000e+00
   1706.517     90.000     4.1705  30.913348    32.8336    26.0460 0.0000e+00
   1711.339     89.000     4.1733  30.913099    32.8311    26.0437 0.0000e+00
   1715.383     88.000     4.1650  30.900097    32.8246    26.0394 0.0000e+00
   1719.552     87.000     4.1554  30.887985    32.8205    26.0371 0.0000e+00
   1723.517     86.000     4.1537  30.885578    32.8198    26.0368 0.0000e+00
   1727.310     85.000     4.1540  30.884340    32.8186    26.0358 0.0000e+00
   1731.349     84.000     4.1545  30.884021    32.8183    26.0354 0.0000e+00
   1735.589     83.000     4.1550  30.883747    32.8179    26.0351 0.0000e+00
   1740.080     82.000     4.1553  30.882993    32.8173    26.0346 0.0000e+00
   1744.641     81.000     4.1559  30.882565    32.8167    26.0340 0.0000e+00
   1748.727     80.000     4.1568  30.882140    32.8158    26.0332 0.0000e+00
   1752.352     79.000     4.1575  30.881553    32.8149    26.0325 0.0000e+00
   1756.089     78.000     4.1582  30.881274    32.8144    26.0320 0.0000e+00
   1759.526     77.000     4.1594  30.881561    32.8141    26.0316 0.0000e+00
   1763.273     76.000     4.1641  30.885078    32.8140    26.0311 0.0000e+00
   1767.053     75.000     4.1810  30.898718    32.8137    26.0291 0.0000e+00
   1770.716     74.000     4.2034  30.916382    32.8126    26.0260 0.0000e+00
   1774.288     73.000     4.2182  30.927263    32.8111    26.0233 0.0000e+00
   1778.446     72.000     4.2308  30.936362    32.8098    26.0209 0.0000e+00
   1782.324     71.000     4.2414  30.943520    32.8081    26.0185 0.0000e+00
   1786.116     70.000     4.2270  30.924551    32.8007    26.0141 0.0000e+00
   1790.443     69.000     4.2153  30.909539    32.7953    26.0110 0.0000e+00
   1794.032     68.000     4.2229  30.912282    32.7914    26.0072 0.0000e+00
   1798.120     67.000     4.2463  30.930095    32.7895    26.0033 0.0000e+00
   1801.637     66.000     4.2648  30.940906    32.7843    25.9972 0.0000e+00
   1805.399     65.000     4.2608  30.932449    32.7789    25.9933 0.0000e+00
   1808.998     64.000     4.2667  30.932098    32.7731    25.9882 0.0000e+00
   1812.822     63.000     4.2872  30.940328    32.7629    25.9779 0.0000e+00
   1816.567     62.000     4.3132  30.950430    32.7493    25.9645 0.0000e+00
   1820.100     61.000     4.3258  30.955785    32.7436    25.9587 0.0000e+00
   1823.960     60.000     4.3352  30.961758    32.7417    25.9562 0.0000e+00
   1827.664     59.000     4.3381  30.961791    32.7394    25.9541 0.0000e+00
   1831.208     58.000     4.3422  30.962612    32.7368    25.9516 0.0000e+00
   1834.735     57.000     4.3503  30.967256    32.7347    25.9491 0.0000e+00
   1838.434     56.000     4.3553  30.968052    32.7312    25.9458 0.0000e+00
   1841.632     55.000     4.3660  30.971015    32.7245    25.9394 0.0000e+00
   1845.408     54.000     4.3844  30.976124    32.7128    25.9281 0.0000e+00
   1848.796     53.000     4.3886  30.977898    32.7112    25.9265 0.0000e+00
   1852.503     52.000     4.3921  30.978971    32.7095    25.9247 0.0000e+00
   1856.129     51.000     4.3987  30.982383    32.7074    25.9224 0.0000e+00
   1859.767     50.000     4.4203  30.998891    32.7058    25.9189 0.0000e+00
   1863.291     49.000     4.4514  31.023614    32.7043    25.9145 0.0000e+00
   1867.126     48.000     4.4767  31.040701    32.6997    25.9082 0.0000e+00
   1870.607     47.000     4.5534  31.102335    32.6961    25.8973 0.0000e+00
   1874.688     46.000     4.5736  31.108088    32.6833    25.8850 0.0000e+00
   1878.302     45.000     4.5794  31.105355    32.6749    25.8777 0.0000e+00
   1882.311     44.000     4.5840  31.102745    32.6678    25.8716 0.0000e+00
   1885.595     43.000     4.6039  31.100228    32.6458    25.8520 0.0000e+00
   1889.292     42.000     4.6442  31.096695    32.6025    25.8134 0.0000e+00
   1892.267     41.000     4.6452  31.080338    32.5830    25.7978 0.0000e+00
   1895.930     40.000     4.6372  31.053344    32.5601    25.7805 0.0000e+00
   1899.494     39.000     4.6384  31.050917    32.5566    25.7776 0.0000e+00
   1902.770     38.000     4.6408  31.045294    32.5482    25.7707 0.0000e+00
   1906.901     37.000     4.6436  31.039184    32.5389    25.7630 0.0000e+00
   1910.398     36.000     4.6434  31.034829    32.5345    25.7596 0.0000e+00
   1913.877     35.000     4.6412  31.030197    32.5318    25.7576 0.0000e+00
   1917.756     34.000     4.6389  31.025649    32.5293    25.7559 0.0000e+00
   1921.193     33.000     4.6374  31.022810    32.5280    25.7550 0.0000e+00
   1924.990     32.000     4.6353  31.019326    32.5265    25.7541 0.0000e+00
   1928.699     31.000     4.6337  31.013874    32.5223    25.7509 0.0000e+00
   1932.591     30.000     4.6347  31.009965    32.5173    25.7468 0.0000e+00
   1936.250     29.000     4.6376  30.999715    32.5030    25.7352 0.0000e+00
   1940.358     28.000     4.6375  30.994712    32.4978    25.7311 0.0000e+00
   1943.957     27.000     4.6374  30.993942    32.4976    25.7309 0.0000e+00
   1947.848     26.000     4.6372  30.991393    32.4953    25.7291 0.0000e+00
   1951.596     25.000     4.6366  30.987767    32.4922    25.7267 0.0000e+00
   1955.604     24.000     4.6378  30.979057    32.4814    25.7180 0.0000e+00
   1959.514     23.000     4.6423  30.974717    32.4725    25.7105 0.0000e+00
   1963.937     22.000     4.6454  30.972741    32.4676    25.7063 0.0000e+00
   1968.044     21.000     4.6471  30.971114    32.4646    25.7037 0.0000e+00
   1972.771     20.000     4.6496  30.970346    32.4618    25.7012 0.0000e+00
   1976.919     19.000     4.6557  30.968383    32.4540    25.6944 0.0000e+00
   1981.602     18.000     4.6884  30.981862    32.4381    25.6783 0.0000e+00
   1986.187     17.000     4.7138  30.994698    32.4286    25.6681 0.0000e+00
   1991.249     16.000     4.7151  30.993728    32.4267    25.6664 0.0000e+00
   1996.278     15.000     4.7141  30.990909    32.4249    25.6651 0.0000e+00
   2000.974     14.000     4.7190  30.992203    32.4221    25.6624 0.0000e+00
   2005.681     13.000     4.7811  31.031065    32.4069    25.6436 0.0000e+00
   2010.051     12.000     5.2959  31.425229    32.3593    25.5491 0.0000e+00
   2014.420     11.000     5.9167  31.903520    32.3037    25.4326 0.0000e+00
   2019.024     10.000     6.0445  32.001737    32.2921    25.4080 0.0000e+00
   2023.992      9.000     6.0846  32.031396    32.2876    25.3995 0.0000e+00
   2029.100      8.000     6.1101  32.044234    32.2781    25.3889 0.0000e+00
   2034.225      7.000     6.1335  32.048326    32.2609    25.3724 0.0000e+00
   2039.327      6.000     6.1384  32.050059    32.2586    25.3700 0.0000e+00
   2044.106      5.000     6.1412  32.050610    32.2571    25.3685 0.0000e+00
   2048.938      4.000     6.1445  32.050907    32.2547    25.3662 0.0000e+00
   2053.769      3.000     6.1469  32.051685    32.2538    25.3652 0.0000e+00
   2070.842      2.000     6.1495  32.052722    32.2530    25.3642 0.0000e+00
   2077.074      1.000     6.1499  31.485625    31.6219    24.8661 0.0000e+00
