* Sea-Bird SBE 19plus Data File:
* FileName = C:\Sea-Bird Data\2014\DY1405\Casts\BON034.hex
* Software Version Seasave V 7.22.3
* Temperature SN = 4530
* Conductivity SN = 4530
* System UpLoad Time = May 11 2014 12:09:08
* Real-Time Sample Interval = 0.2500 seconds
* System UTC = May 11 2014 12:09:08
# nquan = 7                                 
# nvalues = 125                         
# units = specified
# name 0 = timeS: Time, Elapsed [seconds]
# name 1 = prdM: Pressure, Strain Gauge [db]
# name 2 = tv290C: Temperature [ITS-90, deg C]
# name 3 = c0mS/cm: Conductivity [mS/cm]
# name 4 = sal00: Salinity, Practical [PSU]
# name 5 = sigma-t00: Density [sigma-t, Kg/m^3 ]
# name 6 = flag: flag
# span 0 =    188.101,    572.493       
# span 1 =      1.000,     63.000       
# span 2 =     0.5942,     1.6141       
# span 3 =  25.058665,  28.166969       
# span 4 =    28.2552,    32.1503       
# span 5 =    22.5947,    25.7598       
# span 6 = 0.0000e+00, 0.0000e+00       
# interval = decibars: 1                
# start_time = May 11 2014 12:09:08 [System UTC, header]
# bad_flag = -9.990e-29
# <Sensors count="3" >
#   <sensor Channel="1" >
#     <!-- Count, Temperature -->
#     <TemperatureSensor SensorID="58" >
#       <SerialNumber>4530</SerialNumber>
#       <CalibrationDate>03-Dec-13</CalibrationDate>
#       <A0>1.22471000e-003</A0>
#       <A1>2.66234600e-004</A1>
#       <A2>-3.25282000e-007</A2>
#       <A3>1.63905300e-007</A3>
#       <Slope>1.00000000</Slope>
#       <Offset>0.0000</Offset>
#     </TemperatureSensor>
#   </sensor>
#   <sensor Channel="2" >
#     <!-- Frequency 0, Conductivity -->
#     <ConductivitySensor SensorID="3" >
#       <SerialNumber>4530</SerialNumber>
#       <CalibrationDate>03-Dec-13</CalibrationDate>
#       <UseG_J>1</UseG_J>
#       <!-- Cell const and series R are applicable only for wide range sensors. -->
#       <SeriesR>0.0000</SeriesR>
#       <CellConst>2000.0000</CellConst>
#       <ConductivityType>0</ConductivityType>
#       <Coefficients equation="0" >
#         <A>0.00000000e+000</A>
#         <B>0.00000000e+000</B>
#         <C>0.00000000e+000</C>
#         <D>0.00000000e+000</D>
#         <M>0.0</M>
#         <CPcor>-9.57000000e-008</CPcor>
#       </Coefficients>
#       <Coefficients equation="1" >
#         <G>-9.84131900e-001</G>
#         <H>1.41458700e-001</H>
#         <I>-1.92288200e-004</I>
#         <J>3.59848200e-005</J>
#         <CPcor>-9.57000000e-008</CPcor>
#         <CTcor>3.2500e-006</CTcor>
#         <!-- WBOTC not applicable unless ConductivityType = 1. -->
#         <WBOTC>0.00000000e+000</WBOTC>
#       </Coefficients>
#       <Slope>1.00000000</Slope>
#       <Offset>0.00000</Offset>
#     </ConductivitySensor>
#   </sensor>
#   <sensor Channel="3" >
#     <!-- Count, Pressure, Strain Gauge -->
#     <PressureSensor SensorID="46" >
#       <SerialNumber>4530</SerialNumber>
#       <CalibrationDate>02-Dec-13</CalibrationDate>
#       <PA0>-3.35712300e-001</PA0>
#       <PA1>1.56795400e-002</PA1>
#       <PA2>-6.60390500e-010</PA2>
#       <PTEMPA0>-6.74611800e+001</PTEMPA0>
#       <PTEMPA1>5.06446900e+001</PTEMPA1>
#       <PTEMPA2>-4.65162800e-001</PTEMPA2>
#       <PTCA0>5.24503600e+005</PTCA0>
#       <PTCA1>-3.17070100e-002</PTCA1>
#       <PTCA2>-4.70494400e-002</PTCA2>
#       <PTCB0>2.49031200e+001</PTCB0>
#       <PTCB1>-5.75000000e-004</PTCB1>
#       <PTCB2>0.00000000e+000</PTCB2>
#       <Offset>0.000000</Offset>
#     </PressureSensor>
#   </sensor>
# </Sensors>
# datcnv_date = May 13 2014 00:18:53, 7.22.2 [datcnv_vars = 4]
# datcnv_in = c:\data\seacat\current\bon034.hex c:\data\seacat\current\bon034.XMLCON
# datcnv_skipover = 0
# filter_date = May 13 2014 00:18:54, 7.22.2
# filter_in = c:\data\seacat\current\bon034.cnv
# filter_low_pass_tc_A = 0.500
# filter_low_pass_tc_B = 2.000
# filter_low_pass_A_vars = prdM tv290C c0mS/cm
# filter_low_pass_B_vars =
# alignctd_date = May 13 2014 00:18:54, 7.22.2
# alignctd_in = c:\data\seacat\current\bon034.cnv
# alignctd_adv = tv290C 0.500                                                                                                                                                                                                        
# wildedit_date = May 13 2014 00:18:54, 7.22.2
# wildedit_in = c:\data\seacat\current\bon034.cnv
# wildedit_pass1_nstd = 2.0
# wildedit_pass2_nstd = 15.0
# wildedit_pass2_mindelta = 1.000e-002
# wildedit_npoint = 100
# wildedit_vars = prdM tv290C c0mS/cm
# wildedit_excl_bad_scans = yes
# binavg_date = May 13 2014 00:18:54, 7.22.2
# binavg_in = c:\data\seacat\current\bon034.cnv
# binavg_bintype = decibars
# binavg_binsize = 1
# binavg_excl_bad_scans = yes
# binavg_skipover = 0
# binavg_surface_bin = no, min = 0.000, max = 0.500, value = 0.000
# Derive_date = May 13 2014 00:18:54, 7.22.2 [derive_vars = 2]
# Derive_in = c:\data\seacat\current\bon034.cnv c:\data\seacat\current\BON034.XMLcon
# file_type = ascii
*END*
    188.101      1.000     1.6070  25.058665    28.2552    22.5947 0.0000e+00
    191.715      2.000     1.4684  27.994292    32.0578    25.6512 0.0000e+00
    196.296      3.000     1.4879  27.994398    32.0374    25.6336 0.0000e+00
    200.821      4.000     1.5422  28.082752    32.0928    25.6744 0.0000e+00
    203.162      5.000     1.5275  28.074381    32.0967    25.6786 0.0000e+00
    204.719      6.000     1.5105  28.064690    32.1013    25.6834 0.0000e+00
    206.526      7.000     1.5571  28.094984    32.0913    25.6723 0.0000e+00
    208.694      8.000     1.5527  28.110599    32.1149    25.6915 0.0000e+00
    210.337      9.000     1.5606  28.138428    32.1413    25.7122 0.0000e+00
    211.990     10.000     1.5841  28.149026    32.1301    25.7016 0.0000e+00
    213.732     11.000     1.6085  28.158985    32.1171    25.6896 0.0000e+00
    215.449     12.000     1.6141  28.166969    32.1209    25.6922 0.0000e+00
    217.456     13.000     1.6107  28.163362    32.1193    25.6911 0.0000e+00
    219.315     14.000     1.5713  28.143662    32.1342    25.7058 0.0000e+00
    221.017     15.000     1.5167  28.102447    32.1376    25.7121 0.0000e+00
    223.141     16.000     1.5084  28.106218    32.1503    25.7228 0.0000e+00
    225.004     17.000     1.4814  28.078519    32.1425    25.7183 0.0000e+00
    226.688     18.000     1.4127  27.922586    32.0153    25.6207 0.0000e+00
    228.681     19.000     1.3586  27.851182    31.9798    25.5956 0.0000e+00
    230.679     20.000     1.3325  27.832164    31.9818    25.5988 0.0000e+00
    232.414     21.000     1.2988  27.805013    31.9813    25.6005 0.0000e+00
    234.153     22.000     1.2594  27.772848    31.9803    25.6022 0.0000e+00
    236.353     23.000     1.2323  27.751504    31.9804    25.6039 0.0000e+00
    238.345     24.000     1.2096  27.733914    31.9807    25.6056 0.0000e+00
    239.953     25.000     1.1857  27.715479    31.9812    25.6074 0.0000e+00
    241.632     26.000     1.1619  27.697460    31.9821    25.6096 0.0000e+00
    243.571     27.000     1.1250  27.669672    31.9841    25.6133 0.0000e+00
    245.798     28.000     1.0723  27.630668    31.9879    25.6195 0.0000e+00
    247.430     29.000     1.0005  27.576721    31.9922    25.6273 0.0000e+00
    248.868     30.000     0.9351  27.529717    31.9989    25.6363 0.0000e+00
    250.938     31.000     0.8890  27.499364    32.0069    25.6454 0.0000e+00
    253.257     32.000     0.7957  27.432076    32.0162    25.6582 0.0000e+00
    255.002     33.000     0.7344  27.393447    32.0293    25.6721 0.0000e+00
    256.697     34.000     0.7430  27.407674    32.0382    25.6787 0.0000e+00
    258.396     35.000     0.7452  27.412720    32.0418    25.6815 0.0000e+00
    260.337     36.000     0.7434  27.414730    32.0457    25.6848 0.0000e+00
    262.503     37.000     0.7260  27.405346    32.0511    25.6900 0.0000e+00
    264.355     38.000     0.6907  27.381226    32.0560    25.6959 0.0000e+00
    265.998     39.000     0.6752  27.370680    32.0579    25.6983 0.0000e+00
    267.726     40.000     0.6494  27.350429    32.0579    25.6997 0.0000e+00
    269.758     41.000     0.6180  27.325587    32.0578    25.7013 0.0000e+00
    271.747     42.000     0.5942  27.306642    32.0575    25.7023 0.0000e+00
    273.632     43.000     0.5964  27.309008    32.0577    25.7023 0.0000e+00
    275.390     44.000     0.6472  27.355773    32.0649    25.7054 0.0000e+00
    277.188     45.000     0.6651  27.373101    32.0681    25.7070 0.0000e+00
    279.075     46.000     0.6618  27.372489    32.0702    25.7089 0.0000e+00
    281.200     47.000     0.6639  27.378747    32.0755    25.7130 0.0000e+00
    283.288     48.000     0.6638  27.381373    32.0784    25.7154 0.0000e+00
    285.051     49.000     0.6599  27.379966    32.0801    25.7170 0.0000e+00
    286.892     50.000     0.6584  27.381040    32.0825    25.7189 0.0000e+00
    288.963     51.000     0.6535  27.379845    32.0854    25.7216 0.0000e+00
    291.295     52.000     0.6366  27.373360    32.0940    25.7294 0.0000e+00
    293.364     53.000     0.6320  27.375254    32.1007    25.7350 0.0000e+00
    295.171     54.000     0.6367  27.385701    32.1087    25.7413 0.0000e+00
    297.189     55.000     0.6433  27.397002    32.1159    25.7467 0.0000e+00
    299.512     56.000     0.6510  27.407242    32.1206    25.7500 0.0000e+00
    301.963     57.000     0.6592  27.417267    32.1244    25.7527 0.0000e+00
    303.667     58.000     0.6631  27.423247    32.1275    25.7550 0.0000e+00
    305.759     59.000     0.6679  27.429799    32.1305    25.7571 0.0000e+00
    308.422     60.000     0.6698  27.432385    32.1313    25.7576 0.0000e+00
    310.510     61.000     0.6714  27.434877    32.1322    25.7583 0.0000e+00
    312.503     62.000     0.6734  27.437604    32.1331    25.7589 0.0000e+00
    317.666     63.000     0.6758  27.440950    32.1344    25.7598 0.0000e+00
    325.594     62.000     0.6737  27.438021    32.1333    25.7591 0.0000e+00
    327.422     61.000     0.6715  27.435053    32.1324    25.7584 0.0000e+00
    329.502     60.000     0.6698  27.432780    32.1318    25.7580 0.0000e+00
    332.069     59.000     0.6680  27.430452    32.1312    25.7576 0.0000e+00
    334.068     58.000     0.6665  27.428038    32.1302    25.7569 0.0000e+00
    335.799     57.000     0.6626  27.422528    32.1277    25.7551 0.0000e+00
    337.641     56.000     0.6587  27.416852    32.1250    25.7532 0.0000e+00
    340.018     55.000     0.6529  27.409319    32.1219    25.7509 0.0000e+00
    342.558     54.000     0.6455  27.399498    32.1174    25.7478 0.0000e+00
    344.178     53.000     0.6394  27.389792    32.1118    25.7436 0.0000e+00
    346.490     52.000     0.6327  27.376597    32.1023    25.7363 0.0000e+00
    349.535     51.000     0.6344  27.371814    32.0949    25.7302 0.0000e+00
    351.584     50.000     0.6487  27.378146    32.0888    25.7246 0.0000e+00
    353.604     49.000     0.6582  27.382188    32.0847    25.7208 0.0000e+00
    356.655     48.000     0.6573  27.378694    32.0817    25.7184 0.0000e+00
    358.851     47.000     0.6558  27.375278    32.0794    25.7166 0.0000e+00
    360.998     46.000     0.6532  27.369900    32.0757    25.7138 0.0000e+00
    363.414     45.000     0.6429  27.357301    32.0707    25.7103 0.0000e+00
    365.827     44.000     0.6614  27.370389    32.0690    25.7079 0.0000e+00
    368.347     43.000     0.6769  27.381698    32.0681    25.7064 0.0000e+00
    370.518     42.000     0.6512  27.357009    32.0634    25.7040 0.0000e+00
    373.518     41.000     0.6139  27.323066    32.0588    25.7023 0.0000e+00
    376.476     40.000     0.6165  27.323919    32.0578    25.7013 0.0000e+00
    379.168     39.000     0.6359  27.339068    32.0578    25.7003 0.0000e+00
    383.530     38.000     0.6707  27.366350    32.0575    25.6982 0.0000e+00
    385.909     37.000     0.7083  27.390665    32.0505    25.6905 0.0000e+00
    390.840     36.000     0.7265  27.398467    32.0423    25.6829 0.0000e+00
    393.013     35.000     0.7385  27.405952    32.0401    25.6805 0.0000e+00
    397.642     34.000     0.7368  27.400092    32.0348    25.6764 0.0000e+00
    401.006     33.000     0.7118  27.375198    32.0292    25.6732 0.0000e+00
    405.538     32.000     0.7361  27.382208    32.0137    25.6594 0.0000e+00
    409.633     31.000     0.8446  27.460934    32.0034    25.6451 0.0000e+00
    414.904     30.000     0.9252  27.518926    31.9952    25.6340 0.0000e+00
    419.430     29.000     0.9848  27.562725    31.9905    25.6268 0.0000e+00
    425.475     28.000     1.0436  27.605926    31.9858    25.6196 0.0000e+00
    430.360     27.000     1.0942  27.644674    31.9838    25.6150 0.0000e+00
    435.876     26.000     1.1323  27.674095    31.9828    25.6119 0.0000e+00
    442.242     25.000     1.1697  27.703026    31.9818    25.6088 0.0000e+00
    448.137     24.000     1.2035  27.729124    31.9809    25.6061 0.0000e+00
    453.939     23.000     1.2180  27.740477    31.9810    25.6053 0.0000e+00
    459.844     22.000     1.2383  27.756908    31.9816    25.6045 0.0000e+00
    466.546     21.000     1.2990  27.806355    31.9828    25.6017 0.0000e+00
    472.252     20.000     1.3160  27.820190    31.9835    25.6012 0.0000e+00
    478.038     19.000     1.3298  27.831302    31.9840    25.6008 0.0000e+00
    483.505     18.000     1.3546  27.851608    31.9849    25.6000 0.0000e+00
    488.364     17.000     1.3785  27.871035    31.9856    25.5990 0.0000e+00
    494.052     16.000     1.3880  27.878710    31.9862    25.5989 0.0000e+00
    500.189     15.000     1.3939  27.883331    31.9866    25.5988 0.0000e+00
    505.830     14.000     1.3998  27.887885    31.9868    25.5987 0.0000e+00
    512.729     13.000     1.4100  27.896047    31.9873    25.5984 0.0000e+00
    517.282     12.000     1.4117  27.897089    31.9874    25.5984 0.0000e+00
    521.633     11.000     1.4117  27.896682    31.9875    25.5984 0.0000e+00
    526.432     10.000     1.4139  27.898224    31.9877    25.5985 0.0000e+00
    530.090      9.000     1.4190  27.902032    31.9879    25.5983 0.0000e+00
    534.247      8.000     1.4182  27.900834    31.9877    25.5982 0.0000e+00
    537.970      7.000     1.4190  27.901157    31.9879    25.5983 0.0000e+00
    542.115      6.000     1.4220  27.903252    31.9880    25.5982 0.0000e+00
    545.992      5.000     1.4216  27.902464    31.9880    25.5982 0.0000e+00
    549.892      4.000     1.4226  27.902883    31.9880    25.5982 0.0000e+00
    559.259      3.000     1.4257  27.905051    31.9882    25.5981 0.0000e+00
    568.785      2.000     1.4253  27.904265    31.9881    25.5981 0.0000e+00
    572.493      1.000     1.4258  27.904097    31.9880    25.5979 0.0000e+00
