* Sea-Bird SBE 19plus Data File:
* FileName = C:\Sea-Bird Data\2014\DY1405\Casts\BON021.hex
* Software Version Seasave V 7.22.3
* Temperature SN = 4530
* Conductivity SN = 4530
* System UpLoad Time = May 10 2014 04:26:42
* Real-Time Sample Interval = 0.2500 seconds
* System UTC = May 10 2014 04:26:42
# nquan = 7                                 
# nvalues = 129                         
# units = specified
# name 0 = timeS: Time, Elapsed [seconds]
# name 1 = prdM: Pressure, Strain Gauge [db]
# name 2 = tv290C: Temperature [ITS-90, deg C]
# name 3 = c0mS/cm: Conductivity [mS/cm]
# name 4 = sal00: Salinity, Practical [PSU]
# name 5 = sigma-t00: Density [sigma-t, Kg/m^3 ]
# name 6 = flag: flag
# span 0 =     63.171,    475.014       
# span 1 =      1.000,     65.000       
# span 2 =     2.1823,     3.5778       
# span 3 =  25.560487,  30.054336       
# span 4 =    27.1510,    33.0135       
# span 5 =    21.5827,    26.3028       
# span 6 = 0.0000e+00, 0.0000e+00       
# interval = decibars: 1                
# start_time = May 10 2014 04:26:42 [System UTC, header]
# bad_flag = -9.990e-29
# <Sensors count="3" >
#   <sensor Channel="1" >
#     <!-- Count, Temperature -->
#     <TemperatureSensor SensorID="58" >
#       <SerialNumber>4530</SerialNumber>
#       <CalibrationDate>03-Dec-13</CalibrationDate>
#       <A0>1.22471000e-003</A0>
#       <A1>2.66234600e-004</A1>
#       <A2>-3.25282000e-007</A2>
#       <A3>1.63905300e-007</A3>
#       <Slope>1.00000000</Slope>
#       <Offset>0.0000</Offset>
#     </TemperatureSensor>
#   </sensor>
#   <sensor Channel="2" >
#     <!-- Frequency 0, Conductivity -->
#     <ConductivitySensor SensorID="3" >
#       <SerialNumber>4530</SerialNumber>
#       <CalibrationDate>03-Dec-13</CalibrationDate>
#       <UseG_J>1</UseG_J>
#       <!-- Cell const and series R are applicable only for wide range sensors. -->
#       <SeriesR>0.0000</SeriesR>
#       <CellConst>2000.0000</CellConst>
#       <ConductivityType>0</ConductivityType>
#       <Coefficients equation="0" >
#         <A>0.00000000e+000</A>
#         <B>0.00000000e+000</B>
#         <C>0.00000000e+000</C>
#         <D>0.00000000e+000</D>
#         <M>0.0</M>
#         <CPcor>-9.57000000e-008</CPcor>
#       </Coefficients>
#       <Coefficients equation="1" >
#         <G>-9.84131900e-001</G>
#         <H>1.41458700e-001</H>
#         <I>-1.92288200e-004</I>
#         <J>3.59848200e-005</J>
#         <CPcor>-9.57000000e-008</CPcor>
#         <CTcor>3.2500e-006</CTcor>
#         <!-- WBOTC not applicable unless ConductivityType = 1. -->
#         <WBOTC>0.00000000e+000</WBOTC>
#       </Coefficients>
#       <Slope>1.00000000</Slope>
#       <Offset>0.00000</Offset>
#     </ConductivitySensor>
#   </sensor>
#   <sensor Channel="3" >
#     <!-- Count, Pressure, Strain Gauge -->
#     <PressureSensor SensorID="46" >
#       <SerialNumber>4530</SerialNumber>
#       <CalibrationDate>02-Dec-13</CalibrationDate>
#       <PA0>-3.35712300e-001</PA0>
#       <PA1>1.56795400e-002</PA1>
#       <PA2>-6.60390500e-010</PA2>
#       <PTEMPA0>-6.74611800e+001</PTEMPA0>
#       <PTEMPA1>5.06446900e+001</PTEMPA1>
#       <PTEMPA2>-4.65162800e-001</PTEMPA2>
#       <PTCA0>5.24503600e+005</PTCA0>
#       <PTCA1>-3.17070100e-002</PTCA1>
#       <PTCA2>-4.70494400e-002</PTCA2>
#       <PTCB0>2.49031200e+001</PTCB0>
#       <PTCB1>-5.75000000e-004</PTCB1>
#       <PTCB2>0.00000000e+000</PTCB2>
#       <Offset>0.000000</Offset>
#     </PressureSensor>
#   </sensor>
# </Sensors>
# datcnv_date = May 12 2014 21:09:31, 7.22.2 [datcnv_vars = 4]
# datcnv_in = c:\data\seacat\current\bon021.hex c:\data\seacat\current\bon021.XMLCON
# datcnv_skipover = 0
# filter_date = May 12 2014 21:09:32, 7.22.2
# filter_in = c:\data\seacat\current\bon021.cnv
# filter_low_pass_tc_A = 0.500
# filter_low_pass_tc_B = 2.000
# filter_low_pass_A_vars = prdM tv290C c0mS/cm
# filter_low_pass_B_vars =
# alignctd_date = May 12 2014 21:09:32, 7.22.2
# alignctd_in = c:\data\seacat\current\bon021.cnv
# alignctd_adv = tv290C 0.500                                                                                                                                                                                                        
# wildedit_date = May 12 2014 21:09:32, 7.22.2
# wildedit_in = c:\data\seacat\current\bon021.cnv
# wildedit_pass1_nstd = 2.0
# wildedit_pass2_nstd = 15.0
# wildedit_pass2_mindelta = 1.000e-002
# wildedit_npoint = 100
# wildedit_vars = prdM tv290C c0mS/cm
# wildedit_excl_bad_scans = yes
# binavg_date = May 12 2014 21:09:32, 7.22.2
# binavg_in = c:\data\seacat\current\bon021.cnv
# binavg_bintype = decibars
# binavg_binsize = 1
# binavg_excl_bad_scans = yes
# binavg_skipover = 0
# binavg_surface_bin = no, min = 0.000, max = 0.500, value = 0.000
# Derive_date = May 12 2014 21:09:32, 7.22.2 [derive_vars = 2]
# Derive_in = c:\data\seacat\current\bon021.cnv c:\data\seacat\current\BON021.XMLcon
# file_type = ascii
*END*
     63.171      1.000     3.5778  25.560487    27.1510    21.5827 0.0000e+00
     65.270      2.000     3.2311  29.659794    32.3278    25.7323 0.0000e+00
     66.682      3.000     3.2351  29.671403    32.3372    25.7395 0.0000e+00
     68.333      4.000     3.3453  29.820062    32.4051    25.7838 0.0000e+00
     75.536      5.000     3.2937  29.866073    32.5116    25.8733 0.0000e+00
     79.229      6.000     3.2222  29.895088    32.6181    25.9645 0.0000e+00
     80.801      7.000     3.2351  29.968574    32.6931    26.0232 0.0000e+00
     82.739      8.000     3.3830  29.969617    32.5447    25.8916 0.0000e+00
     84.630      9.000     3.2764  29.994550    32.6816    26.0103 0.0000e+00
     86.445     10.000     3.4557  30.021586    32.5330    25.8757 0.0000e+00
     88.348     11.000     3.3621  30.016579    32.6205    25.9540 0.0000e+00
     90.301     12.000     3.4724  30.054336    32.5544    25.8912 0.0000e+00
     92.147     13.000     3.4127  30.050728    32.6095    25.9406 0.0000e+00
     93.894     14.000     3.2734  30.053106    32.7525    26.0671 0.0000e+00
     96.262     15.000     3.1467  30.022487    32.8436    26.1511 0.0000e+00
     98.579     16.000     2.9623  30.007591    33.0135    26.3028 0.0000e+00
    100.328     17.000     3.0152  29.988911    32.9361    26.2364 0.0000e+00
    102.619     18.000     2.7036  29.268889    32.3757    25.8153 0.0000e+00
    105.139     19.000     2.2336  28.726445    32.1842    25.6991 0.0000e+00
    106.964     20.000     2.2446  28.743875    32.1941    25.7062 0.0000e+00
    108.561     21.000     2.2401  28.742492    32.1964    25.7083 0.0000e+00
    110.792     22.000     2.2369  28.738508    32.1942    25.7068 0.0000e+00
    113.054     23.000     2.2354  28.735876    32.1919    25.7051 0.0000e+00
    114.526     24.000     2.2325  28.733234    32.1911    25.7046 0.0000e+00
    116.201     25.000     2.2247  28.726269    32.1898    25.7042 0.0000e+00
    118.260     26.000     2.2204  28.722569    32.1890    25.7039 0.0000e+00
    120.161     27.000     2.2192  28.721661    32.1886    25.7036 0.0000e+00
    121.900     28.000     2.2164  28.718837    32.1874    25.7029 0.0000e+00
    123.493     29.000     2.2163  28.719062    32.1872    25.7028 0.0000e+00
    125.280     30.000     2.2160  28.719162    32.1871    25.7027 0.0000e+00
    127.526     31.000     2.2112  28.715094    32.1864    25.7025 0.0000e+00
    129.411     32.000     2.2071  28.711895    32.1861    25.7025 0.0000e+00
    131.242     33.000     2.2010  28.706713    32.1853    25.7024 0.0000e+00
    133.795     34.000     2.1995  28.705677    32.1850    25.7022 0.0000e+00
    136.059     35.000     2.1962  28.703058    32.1846    25.7021 0.0000e+00
    137.977     36.000     2.1963  28.703566    32.1845    25.7021 0.0000e+00
    140.162     37.000     2.1973  28.704733    32.1844    25.7020 0.0000e+00
    142.481     38.000     2.1977  28.705251    32.1841    25.7017 0.0000e+00
    144.266     39.000     2.1985  28.706522    32.1844    25.7018 0.0000e+00
    145.945     40.000     2.1974  28.705887    32.1841    25.7017 0.0000e+00
    148.005     41.000     2.1976  28.706504    32.1842    25.7017 0.0000e+00
    149.997     42.000     2.1979  28.707163    32.1841    25.7017 0.0000e+00
    151.749     43.000     2.1976  28.707324    32.1841    25.7017 0.0000e+00
    153.614     44.000     2.1981  28.708104    32.1840    25.7016 0.0000e+00
    155.522     45.000     2.1984  28.708746    32.1840    25.7015 0.0000e+00
    157.583     46.000     2.1989  28.709734    32.1841    25.7016 0.0000e+00
    159.420     47.000     2.1979  28.709249    32.1840    25.7016 0.0000e+00
    161.288     48.000     2.1953  28.707408    32.1838    25.7016 0.0000e+00
    163.628     49.000     2.1912  28.704221    32.1835    25.7017 0.0000e+00
    165.624     50.000     2.1886  28.702271    32.1832    25.7016 0.0000e+00
    167.663     51.000     2.1872  28.701452    32.1830    25.7016 0.0000e+00
    169.800     52.000     2.1886  28.702989    32.1830    25.7014 0.0000e+00
    171.827     53.000     2.1914  28.705984    32.1833    25.7015 0.0000e+00
    174.280     54.000     2.1899  28.705229    32.1834    25.7016 0.0000e+00
    176.278     55.000     2.1851  28.701280    32.1828    25.7015 0.0000e+00
    178.444     56.000     2.1834  28.700195    32.1826    25.7015 0.0000e+00
    180.656     57.000     2.1836  28.700767    32.1826    25.7015 0.0000e+00
    182.809     58.000     2.1837  28.701375    32.1827    25.7016 0.0000e+00
    185.110     59.000     2.1833  28.701462    32.1827    25.7016 0.0000e+00
    187.316     60.000     2.1825  28.701150    32.1826    25.7016 0.0000e+00
    189.384     61.000     2.1823  28.701345    32.1825    25.7015 0.0000e+00
    191.623     62.000     2.1825  28.701957    32.1825    25.7015 0.0000e+00
    194.656     63.000     2.1837  28.703428    32.1826    25.7015 0.0000e+00
    196.330     64.000     2.1838  28.703931    32.1825    25.7014 0.0000e+00
    199.472     65.000     2.1844  28.704932    32.1826    25.7015 0.0000e+00
    206.802     64.000     2.1849  28.704793    32.1825    25.7013 0.0000e+00
    210.704     63.000     2.1855  28.704896    32.1825    25.7013 0.0000e+00
    214.827     62.000     2.1856  28.704589    32.1826    25.7014 0.0000e+00
    217.090     61.000     2.1875  28.705869    32.1828    25.7014 0.0000e+00
    219.602     60.000     2.1873  28.705270    32.1828    25.7014 0.0000e+00
    223.139     59.000     2.1860  28.703661    32.1827    25.7014 0.0000e+00
    225.283     58.000     2.1859  28.703229    32.1828    25.7015 0.0000e+00
    228.682     57.000     2.1878  28.704416    32.1829    25.7014 0.0000e+00
    232.010     56.000     2.1894  28.705485    32.1831    25.7015 0.0000e+00
    235.188     55.000     2.1890  28.704646    32.1830    25.7014 0.0000e+00
    238.654     54.000     2.1912  28.706236    32.1833    25.7015 0.0000e+00
    241.862     53.000     2.1903  28.704925    32.1831    25.7014 0.0000e+00
    245.110     52.000     2.1897  28.703847    32.1829    25.7013 0.0000e+00
    248.055     51.000     2.1985  28.711292    32.1838    25.7013 0.0000e+00
    251.767     50.000     2.1987  28.710987    32.1837    25.7013 0.0000e+00
    254.448     49.000     2.1981  28.710094    32.1838    25.7014 0.0000e+00
    257.848     48.000     2.2006  28.711990    32.1841    25.7015 0.0000e+00
    260.849     47.000     2.2075  28.717652    32.1847    25.7014 0.0000e+00
    263.809     46.000     2.2061  28.715867    32.1844    25.7013 0.0000e+00
    267.545     45.000     2.2061  28.715641    32.1847    25.7015 0.0000e+00
    270.511     44.000     2.2050  28.714180    32.1845    25.7015 0.0000e+00
    274.512     43.000     2.2032  28.712188    32.1844    25.7015 0.0000e+00
    277.336     42.000     2.2098  28.717635    32.1850    25.7015 0.0000e+00
    281.611     41.000     2.2191  28.725311    32.1856    25.7013 0.0000e+00
    284.626     40.000     2.2160  28.722154    32.1854    25.7013 0.0000e+00
    288.793     39.000     2.2116  28.717784    32.1850    25.7013 0.0000e+00
    291.980     38.000     2.2184  28.723556    32.1858    25.7015 0.0000e+00
    295.946     37.000     2.2227  28.726732    32.1859    25.7012 0.0000e+00
    299.398     36.000     2.2199  28.723806    32.1857    25.7013 0.0000e+00
    303.744     35.000     2.2158  28.719810    32.1854    25.7014 0.0000e+00
    307.282     34.000     2.2144  28.718087    32.1853    25.7013 0.0000e+00
    312.552     33.000     2.2062  28.710469    32.1847    25.7015 0.0000e+00
    316.825     32.000     2.2079  28.711606    32.1849    25.7015 0.0000e+00
    322.038     31.000     2.2192  28.721171    32.1858    25.7014 0.0000e+00
    327.570     30.000     2.2340  28.733693    32.1869    25.7011 0.0000e+00
    332.182     29.000     2.2359  28.734985    32.1871    25.7012 0.0000e+00
    336.881     28.000     2.2386  28.736925    32.1873    25.7011 0.0000e+00
    341.386     27.000     2.2388  28.736663    32.1873    25.7011 0.0000e+00
    346.124     26.000     2.2381  28.735718    32.1874    25.7012 0.0000e+00
    350.757     25.000     2.2307  28.728646    32.1867    25.7012 0.0000e+00
    356.048     24.000     2.2204  28.719354    32.1861    25.7016 0.0000e+00
    360.811     23.000     2.2379  28.734402    32.1876    25.7014 0.0000e+00
    365.868     22.000     2.2398  28.735442    32.1875    25.7012 0.0000e+00
    371.503     21.000     2.2369  28.732646    32.1875    25.7014 0.0000e+00
    376.365     20.000     2.2503  28.743683    32.1881    25.7009 0.0000e+00
    381.525     19.000     2.2402  28.734495    32.1875    25.7012 0.0000e+00
    386.245     18.000     2.2605  28.751478    32.1885    25.7005 0.0000e+00
    391.392     17.000     2.2818  28.768769    32.1888    25.6991 0.0000e+00
    395.784     16.000     2.2929  28.777561    32.1890    25.6984 0.0000e+00
    400.724     15.000     2.3316  28.808399    32.1884    25.6950 0.0000e+00
    404.658     14.000     2.3570  28.827469    32.1868    25.6917 0.0000e+00
    408.358     13.000     2.3697  28.837035    32.1862    25.6904 0.0000e+00
    412.609     12.000     2.4794  28.921993    32.1805    25.6773 0.0000e+00
    417.363     11.000     2.6014  29.014307    32.1713    25.6603 0.0000e+00
    422.238     10.000     2.6564  29.055093    32.1664    25.6520 0.0000e+00
    426.536      9.000     2.6687  29.064768    32.1664    25.6510 0.0000e+00
    430.846      8.000     2.6869  29.079021    32.1660    25.6492 0.0000e+00
    435.387      7.000     2.7288  29.111981    32.1647    25.6448 0.0000e+00
    439.765      6.000     2.7966  29.166729    32.1639    25.6386 0.0000e+00
    444.288      5.000     2.8949  29.247187    32.1638    25.6304 0.0000e+00
    449.061      4.000     3.0223  29.351393    32.1632    25.6192 0.0000e+00
    453.310      3.000     3.1214  29.433390    32.1639    25.6112 0.0000e+00
    458.775      2.000     3.1678  29.471518    32.1642    25.6074 0.0000e+00
    475.014      1.000     3.1829  29.440141    32.1118    25.5644 0.0000e+00
