* Sea-Bird SBE 19plus Data File:
* FileName = C:\Sea-Bird Data\2014\DY1405\Casts\BON051.hex
* Software Version Seasave V 7.22.3
* Temperature SN = 4530
* Conductivity SN = 4530
* System UpLoad Time = May 16 2014 20:51:40
* Real-Time Sample Interval = 0.2500 seconds
* System UTC = May 16 2014 20:51:40
# nquan = 7                                 
# nvalues = 205                         
# units = specified
# name 0 = timeS: Time, Elapsed [seconds]
# name 1 = prdM: Pressure, Strain Gauge [db]
# name 2 = tv290C: Temperature [ITS-90, deg C]
# name 3 = c0mS/cm: Conductivity [mS/cm]
# name 4 = sal00: Salinity, Practical [PSU]
# name 5 = sigma-t00: Density [sigma-t, Kg/m^3 ]
# name 6 = flag: flag
# span 0 =     85.784,    704.189       
# span 1 =      1.000,    103.000       
# span 2 =     4.5352,     5.1635       
# span 3 =  25.371750,  31.382531       
# span 4 =    25.6663,    32.6527       
# span 5 =    20.2698,    25.8647       
# span 6 = 0.0000e+00, 0.0000e+00       
# interval = decibars: 1                
# start_time = May 16 2014 20:51:40 [System UTC, header]
# bad_flag = -9.990e-29
# <Sensors count="3" >
#   <sensor Channel="1" >
#     <!-- Count, Temperature -->
#     <TemperatureSensor SensorID="58" >
#       <SerialNumber>4530</SerialNumber>
#       <CalibrationDate>03-Dec-13</CalibrationDate>
#       <A0>1.22471000e-003</A0>
#       <A1>2.66234600e-004</A1>
#       <A2>-3.25282000e-007</A2>
#       <A3>1.63905300e-007</A3>
#       <Slope>1.00000000</Slope>
#       <Offset>0.0000</Offset>
#     </TemperatureSensor>
#   </sensor>
#   <sensor Channel="2" >
#     <!-- Frequency 0, Conductivity -->
#     <ConductivitySensor SensorID="3" >
#       <SerialNumber>4530</SerialNumber>
#       <CalibrationDate>03-Dec-13</CalibrationDate>
#       <UseG_J>1</UseG_J>
#       <!-- Cell const and series R are applicable only for wide range sensors. -->
#       <SeriesR>0.0000</SeriesR>
#       <CellConst>2000.0000</CellConst>
#       <ConductivityType>0</ConductivityType>
#       <Coefficients equation="0" >
#         <A>0.00000000e+000</A>
#         <B>0.00000000e+000</B>
#         <C>0.00000000e+000</C>
#         <D>0.00000000e+000</D>
#         <M>0.0</M>
#         <CPcor>-9.57000000e-008</CPcor>
#       </Coefficients>
#       <Coefficients equation="1" >
#         <G>-9.84131900e-001</G>
#         <H>1.41458700e-001</H>
#         <I>-1.92288200e-004</I>
#         <J>3.59848200e-005</J>
#         <CPcor>-9.57000000e-008</CPcor>
#         <CTcor>3.2500e-006</CTcor>
#         <!-- WBOTC not applicable unless ConductivityType = 1. -->
#         <WBOTC>0.00000000e+000</WBOTC>
#       </Coefficients>
#       <Slope>1.00000000</Slope>
#       <Offset>0.00000</Offset>
#     </ConductivitySensor>
#   </sensor>
#   <sensor Channel="3" >
#     <!-- Count, Pressure, Strain Gauge -->
#     <PressureSensor SensorID="46" >
#       <SerialNumber>4530</SerialNumber>
#       <CalibrationDate>02-Dec-13</CalibrationDate>
#       <PA0>-3.35712300e-001</PA0>
#       <PA1>1.56795400e-002</PA1>
#       <PA2>-6.60390500e-010</PA2>
#       <PTEMPA0>-6.74611800e+001</PTEMPA0>
#       <PTEMPA1>5.06446900e+001</PTEMPA1>
#       <PTEMPA2>-4.65162800e-001</PTEMPA2>
#       <PTCA0>5.24503600e+005</PTCA0>
#       <PTCA1>-3.17070100e-002</PTCA1>
#       <PTCA2>-4.70494400e-002</PTCA2>
#       <PTCB0>2.49031200e+001</PTCB0>
#       <PTCB1>-5.75000000e-004</PTCB1>
#       <PTCB2>0.00000000e+000</PTCB2>
#       <Offset>0.000000</Offset>
#     </PressureSensor>
#   </sensor>
# </Sensors>
# datcnv_date = May 17 2014 01:16:40, 7.22.2 [datcnv_vars = 4]
# datcnv_in = c:\data\seacat\current\bon051.hex c:\data\seacat\current\bon051.XMLCON
# datcnv_skipover = 0
# filter_date = May 17 2014 01:16:40, 7.22.2
# filter_in = c:\data\seacat\current\bon051.cnv
# filter_low_pass_tc_A = 0.500
# filter_low_pass_tc_B = 2.000
# filter_low_pass_A_vars = prdM tv290C c0mS/cm
# filter_low_pass_B_vars =
# alignctd_date = May 17 2014 01:16:40, 7.22.2
# alignctd_in = c:\data\seacat\current\bon051.cnv
# alignctd_adv = tv290C 0.500                                                                                                                                                                                                        
# wildedit_date = May 17 2014 01:16:40, 7.22.2
# wildedit_in = c:\data\seacat\current\bon051.cnv
# wildedit_pass1_nstd = 2.0
# wildedit_pass2_nstd = 15.0
# wildedit_pass2_mindelta = 1.000e-002
# wildedit_npoint = 100
# wildedit_vars = prdM tv290C c0mS/cm
# wildedit_excl_bad_scans = yes
# binavg_date = May 17 2014 01:16:40, 7.22.2
# binavg_in = c:\data\seacat\current\bon051.cnv
# binavg_bintype = decibars
# binavg_binsize = 1
# binavg_excl_bad_scans = yes
# binavg_skipover = 0
# binavg_surface_bin = no, min = 0.000, max = 0.500, value = 0.000
# Derive_date = May 17 2014 01:16:40, 7.22.2 [derive_vars = 2]
# Derive_in = c:\data\seacat\current\bon051.cnv c:\data\seacat\current\BON051.XMLcon
# file_type = ascii
*END*
     85.784      1.000     5.1635  25.371750    25.6663    20.2698 0.0000e+00
     88.093      2.000     5.0650  31.145594    32.2681    25.5028 0.0000e+00
     92.167      3.000     5.1050  31.288353    32.3924    25.5968 0.0000e+00
     97.720      4.000     5.0817  31.256790    32.3784    25.5883 0.0000e+00
     98.725      5.000     5.0875  31.277722    32.3962    25.6018 0.0000e+00
    100.870      6.000     5.1153  31.301212    32.3956    25.5982 0.0000e+00
    102.501      7.000     5.1016  31.323510    32.4340    25.6301 0.0000e+00
    104.347      8.000     5.1322  31.337601    32.4199    25.6155 0.0000e+00
    106.060      9.000     5.1130  31.336868    32.4372    25.6314 0.0000e+00
    107.956     10.000     5.1144  31.357196    32.4586    25.6482 0.0000e+00
    110.117     11.000     5.1092  31.366850    32.4743    25.6611 0.0000e+00
    112.178     12.000     5.1129  31.375964    32.4806    25.6658 0.0000e+00
    114.203     13.000     5.1045  31.365747    32.4766    25.6635 0.0000e+00
    116.212     14.000     5.1093  31.375803    32.4829    25.6680 0.0000e+00
    118.258     15.000     5.0892  31.363825    32.4883    25.6745 0.0000e+00
    120.001     16.000     5.0773  31.368484    32.5047    25.6888 0.0000e+00
    121.979     17.000     5.0777  31.382531    32.5199    25.7008 0.0000e+00
    123.962     18.000     5.0628  31.349767    32.4964    25.6838 0.0000e+00
    125.880     19.000     4.9618  31.151615    32.3667    25.5922 0.0000e+00
    127.705     20.000     4.9086  31.097791    32.3560    25.5895 0.0000e+00
    129.539     21.000     4.8954  31.088190    32.3573    25.5920 0.0000e+00
    131.537     22.000     4.8921  31.085761    32.3572    25.5923 0.0000e+00
    133.424     23.000     4.8913  31.085337    32.3570    25.5922 0.0000e+00
    135.334     24.000     4.8878  31.083777    32.3581    25.5934 0.0000e+00
    137.303     25.000     4.8825  31.081232    32.3598    25.5954 0.0000e+00
    139.120     26.000     4.8773  31.078638    32.3614    25.5972 0.0000e+00
    140.965     27.000     4.8715  31.075649    32.3631    25.5992 0.0000e+00
    142.962     28.000     4.8684  31.074181    32.3639    25.6002 0.0000e+00
    144.784     29.000     4.8661  31.073236    32.3646    25.6009 0.0000e+00
    146.559     30.000     4.8603  31.070221    32.3662    25.6029 0.0000e+00
    148.538     31.000     4.8559  31.068318    32.3678    25.6046 0.0000e+00
    150.504     32.000     4.8528  31.068727    32.3708    25.6073 0.0000e+00
    152.353     33.000     4.8533  31.071232    32.3727    25.6088 0.0000e+00
    154.397     34.000     4.8547  31.073112    32.3730    25.6089 0.0000e+00
    156.018     35.000     4.8593  31.078521    32.3743    25.6094 0.0000e+00
    157.743     36.000     4.8620  31.082143    32.3753    25.6099 0.0000e+00
    159.654     37.000     4.8614  31.082668    32.3760    25.6105 0.0000e+00
    161.372     38.000     4.8604  31.082575    32.3764    25.6109 0.0000e+00
    163.295     39.000     4.8586  31.081856    32.3768    25.6114 0.0000e+00
    165.115     40.000     4.8549  31.079896    32.3776    25.6125 0.0000e+00
    166.855     41.000     4.8520  31.079674    32.3797    25.6144 0.0000e+00
    168.960     42.000     4.8483  31.078109    32.3810    25.6159 0.0000e+00
    170.856     43.000     4.8458  31.077009    32.3817    25.6167 0.0000e+00
    172.795     44.000     4.8441  31.076363    32.3821    25.6172 0.0000e+00
    175.049     45.000     4.8420  31.075204    32.3823    25.6176 0.0000e+00
    176.765     46.000     4.8416  31.075754    32.3828    25.6180 0.0000e+00
    178.577     47.000     4.8416  31.076167    32.3828    25.6180 0.0000e+00
    180.605     48.000     4.8420  31.077078    32.3829    25.6181 0.0000e+00
    182.442     49.000     4.8426  31.078215    32.3832    25.6182 0.0000e+00
    184.402     50.000     4.8417  31.078060    32.3833    25.6185 0.0000e+00
    186.253     51.000     4.8382  31.075606    32.3834    25.6189 0.0000e+00
    188.125     52.000     4.8370  31.075554    32.3840    25.6195 0.0000e+00
    190.093     53.000     4.8347  31.074408    32.3845    25.6201 0.0000e+00
    192.145     54.000     4.8326  31.073538    32.3850    25.6207 0.0000e+00
    193.968     55.000     4.8298  31.072378    32.3859    25.6218 0.0000e+00
    195.892     56.000     4.8268  31.073458    32.3896    25.6250 0.0000e+00
    198.012     57.000     4.8211  31.074867    32.3962    25.6309 0.0000e+00
    200.028     58.000     4.8187  31.075792    32.3991    25.6335 0.0000e+00
    201.939     59.000     4.8178  31.076896    32.4008    25.6349 0.0000e+00
    203.970     60.000     4.8175  31.077482    32.4013    25.6353 0.0000e+00
    205.906     61.000     4.8149  31.077642    32.4035    25.6373 0.0000e+00
    208.060     62.000     4.7992  31.075548    32.4159    25.6488 0.0000e+00
    210.146     63.000     4.7876  31.074014    32.4249    25.6573 0.0000e+00
    212.060     64.000     4.7811  31.073351    32.4300    25.6620 0.0000e+00
    214.177     65.000     4.7795  31.073355    32.4311    25.6630 0.0000e+00
    216.232     66.000     4.7763  31.073340    32.4337    25.6654 0.0000e+00
    218.359     67.000     4.7711  31.073090    32.4380    25.6694 0.0000e+00
    220.264     68.000     4.7687  31.073008    32.4397    25.6710 0.0000e+00
    222.219     69.000     4.7634  31.072420    32.4437    25.6747 0.0000e+00
    224.166     70.000     4.7556  31.071368    32.4496    25.6803 0.0000e+00
    226.366     71.000     4.7470  31.069206    32.4550    25.6855 0.0000e+00
    228.462     72.000     4.7434  31.068529    32.4573    25.6876 0.0000e+00
    230.417     73.000     4.7423  31.068253    32.4575    25.6880 0.0000e+00
    232.650     74.000     4.7417  31.068407    32.4578    25.6882 0.0000e+00
    234.908     75.000     4.7420  31.068776    32.4574    25.6879 0.0000e+00
    237.345     76.000     4.7419  31.069127    32.4574    25.6879 0.0000e+00
    239.613     77.000     4.7407  31.068635    32.4575    25.6881 0.0000e+00
    242.143     78.000     4.7394  31.068623    32.4583    25.6889 0.0000e+00
    244.463     79.000     4.7378  31.068662    32.4594    25.6899 0.0000e+00
    246.341     80.000     4.7335  31.067592    32.4618    25.6923 0.0000e+00
    248.503     81.000     4.7262  31.065582    32.4662    25.6965 0.0000e+00
    250.355     82.000     4.7005  31.059941    32.4843    25.7137 0.0000e+00
    252.218     83.000     4.6762  31.056234    32.5033    25.7313 0.0000e+00
    254.153     84.000     4.6636  31.055790    32.5147    25.7417 0.0000e+00
    256.160     85.000     4.6542  31.056125    32.5238    25.7499 0.0000e+00
    258.323     86.000     4.6341  31.056769    32.5438    25.7679 0.0000e+00
    260.723     87.000     4.6200  31.057803    32.5583    25.7809 0.0000e+00
    263.026     88.000     4.6174  31.060238    32.5632    25.7851 0.0000e+00
    265.401     89.000     4.6168  31.065098    32.5689    25.7897 0.0000e+00
    267.713     90.000     4.6174  31.077957    32.5827    25.8006 0.0000e+00
    269.973     91.000     4.6184  31.087924    32.5928    25.8084 0.0000e+00
    271.956     92.000     4.6066  31.079699    32.5944    25.8109 0.0000e+00
    274.150     93.000     4.5972  31.073111    32.5955    25.8128 0.0000e+00
    276.261     94.000     4.5942  31.071887    32.5965    25.8139 0.0000e+00
    278.147     95.000     4.5870  31.069028    32.5998    25.8173 0.0000e+00
    280.287     96.000     4.5767  31.067092    32.6072    25.8242 0.0000e+00
    282.170     97.000     4.5659  31.066297    32.6164    25.8327 0.0000e+00
    284.128     98.000     4.5640  31.067689    32.6194    25.8353 0.0000e+00
    286.038     99.000     4.5597  31.070221    32.6260    25.8410 0.0000e+00
    287.915    100.000     4.5553  31.073491    32.6337    25.8475 0.0000e+00
    289.784    101.000     4.5532  31.077881    32.6403    25.8530 0.0000e+00
    291.690    102.000     4.5443  31.078447    32.6493    25.8611 0.0000e+00
    300.029    103.000     4.5352  31.074114    32.6527    25.8647 0.0000e+00
    304.037    102.000     4.5385  31.075133    32.6511    25.8632 0.0000e+00
    306.583    101.000     4.5452  31.077951    32.6483    25.8602 0.0000e+00
    309.173    100.000     4.5546  31.076037    32.6373    25.8505 0.0000e+00
    311.944     99.000     4.5572  31.070032    32.6283    25.8430 0.0000e+00
    314.679     98.000     4.5602  31.066607    32.6218    25.8376 0.0000e+00
    317.582     97.000     4.5609  31.065656    32.6206    25.8365 0.0000e+00
    320.462     96.000     4.5620  31.064906    32.6191    25.8353 0.0000e+00
    323.407     95.000     4.5685  31.064812    32.6131    25.8298 0.0000e+00
    326.925     94.000     4.5868  31.068876    32.6003    25.8177 0.0000e+00
    330.097     93.000     4.5908  31.070443    32.5987    25.8160 0.0000e+00
    333.500     92.000     4.6063  31.082454    32.5979    25.8137 0.0000e+00
    336.843     91.000     4.6229  31.081467    32.5809    25.7985 0.0000e+00
    339.898     90.000     4.6172  31.062810    32.5654    25.7868 0.0000e+00
    343.106     89.000     4.6190  31.058740    32.5594    25.7819 0.0000e+00
    346.309     88.000     4.6314  31.056370    32.5449    25.7691 0.0000e+00
    349.577     87.000     4.6504  31.053982    32.5240    25.7505 0.0000e+00
    353.192     86.000     4.6606  31.053131    32.5135    25.7411 0.0000e+00
    356.390     85.000     4.6765  31.054570    32.5001    25.7287 0.0000e+00
    359.971     84.000     4.7036  31.058962    32.4791    25.7092 0.0000e+00
    363.585     83.000     4.7263  31.064158    32.4634    25.6943 0.0000e+00
    367.157     82.000     4.7376  31.067638    32.4569    25.6879 0.0000e+00
    370.925     81.000     4.7391  31.068055    32.4564    25.6874 0.0000e+00
    374.758     80.000     4.7372  31.066765    32.4573    25.6883 0.0000e+00
    378.633     79.000     4.7392  31.067257    32.4564    25.6874 0.0000e+00
    382.783     78.000     4.7427  31.068770    32.4552    25.6861 0.0000e+00
    386.774     77.000     4.7444  31.068752    32.4540    25.6850 0.0000e+00
    391.072     76.000     4.7464  31.068997    32.4529    25.6838 0.0000e+00
    395.528     75.000     4.7482  31.069160    32.4518    25.6828 0.0000e+00
    399.965     74.000     4.7519  31.070440    32.4502    25.6811 0.0000e+00
    404.195     73.000     4.7551  31.070867    32.4480    25.6791 0.0000e+00
    408.398     72.000     4.7613  31.072374    32.4442    25.6754 0.0000e+00
    412.629     71.000     4.7702  31.074065    32.4380    25.6695 0.0000e+00
    417.065     70.000     4.7765  31.074514    32.4328    25.6647 0.0000e+00
    421.666     69.000     4.7803  31.074724    32.4299    25.6620 0.0000e+00
    426.173     68.000     4.7835  31.074700    32.4272    25.6595 0.0000e+00
    430.640     67.000     4.7867  31.074601    32.4245    25.6570 0.0000e+00
    435.241     66.000     4.7912  31.074870    32.4209    25.6537 0.0000e+00
    440.192     65.000     4.8010  31.076082    32.4132    25.6465 0.0000e+00
    445.763     64.000     4.8167  31.078345    32.4010    25.6352 0.0000e+00
    450.570     63.000     4.8172  31.077671    32.4003    25.6345 0.0000e+00
    455.213     62.000     4.8175  31.076976    32.3997    25.6340 0.0000e+00
    459.075     61.000     4.8182  31.076491    32.3989    25.6333 0.0000e+00
    463.483     60.000     4.8187  31.076052    32.3984    25.6329 0.0000e+00
    467.556     59.000     4.8189  31.075556    32.3982    25.6327 0.0000e+00
    471.879     58.000     4.8200  31.074908    32.3969    25.6315 0.0000e+00
    476.039     57.000     4.8219  31.074095    32.3946    25.6295 0.0000e+00
    480.149     56.000     4.8248  31.073574    32.3916    25.6269 0.0000e+00
    483.930     55.000     4.8253  31.073940    32.3921    25.6271 0.0000e+00
    487.893     54.000     4.8252  31.073456    32.3921    25.6272 0.0000e+00
    491.445     53.000     4.8253  31.073128    32.3921    25.6272 0.0000e+00
    495.061     52.000     4.8264  31.073021    32.3915    25.6265 0.0000e+00
    498.958     51.000     4.8301  31.071969    32.3871    25.6227 0.0000e+00
    502.677     50.000     4.8311  31.071178    32.3857    25.6215 0.0000e+00
    506.670     49.000     4.8312  31.070466    32.3853    25.6212 0.0000e+00
    510.341     48.000     4.8314  31.069807    32.3849    25.6208 0.0000e+00
    514.119     47.000     4.8315  31.069051    32.3844    25.6204 0.0000e+00
    517.856     46.000     4.8330  31.069309    32.3837    25.6197 0.0000e+00
    521.517     45.000     4.8372  31.071441    32.3826    25.6184 0.0000e+00
    525.414     44.000     4.8409  31.073211    32.3816    25.6171 0.0000e+00
    529.209     43.000     4.8418  31.072136    32.3799    25.6157 0.0000e+00
    533.385     42.000     4.8433  31.072705    32.3796    25.6153 0.0000e+00
    537.172     41.000     4.8453  31.074084    32.3798    25.6152 0.0000e+00
    540.612     40.000     4.8486  31.075734    32.3790    25.6142 0.0000e+00
    544.078     39.000     4.8567  31.079973    32.3765    25.6114 0.0000e+00
    547.563     38.000     4.8554  31.077491    32.3754    25.6107 0.0000e+00
    551.095     37.000     4.8508  31.072102    32.3741    25.6102 0.0000e+00
    554.594     36.000     4.8486  31.068722    32.3729    25.6094 0.0000e+00
    558.238     35.000     4.8476  31.066510    32.3718    25.6087 0.0000e+00
    561.903     34.000     4.8478  31.065710    32.3712    25.6082 0.0000e+00
    565.785     33.000     4.8499  31.065856    32.3698    25.6069 0.0000e+00
    569.643     32.000     4.8528  31.066709    32.3685    25.6055 0.0000e+00
    573.588     31.000     4.8573  31.068248    32.3664    25.6033 0.0000e+00
    577.389     30.000     4.8590  31.068537    32.3656    25.6025 0.0000e+00
    580.907     29.000     4.8619  31.069314    32.3641    25.6010 0.0000e+00
    584.402     28.000     4.8674  31.070713    32.3609    25.5979 0.0000e+00
    588.025     27.000     4.8719  31.071588    32.3580    25.5951 0.0000e+00
    591.045     26.000     4.8731  31.071361    32.3571    25.5943 0.0000e+00
    594.000     25.000     4.8729  31.070675    32.3570    25.5942 0.0000e+00
    597.274     24.000     4.8733  31.070227    32.3566    25.5938 0.0000e+00
    601.569     23.000     4.8755  31.070482    32.3553    25.5925 0.0000e+00
    605.667     22.000     4.8783  31.071064    32.3537    25.5910 0.0000e+00
    609.459     21.000     4.8797  31.071344    32.3532    25.5904 0.0000e+00
    613.005     20.000     4.8814  31.071782    32.3525    25.5897 0.0000e+00
    616.593     19.000     4.8849  31.074763    32.3530    25.5898 0.0000e+00
    620.107     18.000     4.8859  31.075322    32.3532    25.5898 0.0000e+00
    623.825     17.000     4.8872  31.076229    32.3535    25.5899 0.0000e+00
    627.499     16.000     4.8913  31.079325    32.3536    25.5895 0.0000e+00
    631.122     15.000     4.8934  31.079494    32.3522    25.5882 0.0000e+00
    634.998     14.000     4.8957  31.079692    32.3507    25.5867 0.0000e+00
    639.062     13.000     4.9052  31.086771    32.3501    25.5852 0.0000e+00
    643.767     12.000     4.9241  31.099554    32.3470    25.5807 0.0000e+00
    648.574     11.000     4.9494  31.117545    32.3435    25.5752 0.0000e+00
    653.270     10.000     4.9755  31.136968    32.3410    25.5704 0.0000e+00
    658.089      9.000     4.9867  31.145580    32.3405    25.5687 0.0000e+00
    662.753      8.000     5.0016  31.156836    32.3395    25.5663 0.0000e+00
    667.715      7.000     5.0208  31.172042    32.3388    25.5636 0.0000e+00
    672.561      6.000     5.0263  31.176280    32.3388    25.5630 0.0000e+00
    677.442      5.000     5.0315  31.180322    32.3389    25.5625 0.0000e+00
    682.559      4.000     5.0368  31.184384    32.3389    25.5620 0.0000e+00
    687.518      3.000     5.0367  31.183857    32.3389    25.5620 0.0000e+00
    692.779      2.000     5.0387  31.185213    32.3390    25.5618 0.0000e+00
    704.189      1.000     5.0531  31.172924    32.3115    25.5384 0.0000e+00
