* Sea-Bird SBE 19plus Data File:
* FileName = C:\Sea-Bird Data\2014\DY1405\Casts\BON044.hex
* Software Version Seasave V 7.22.3
* Temperature SN = 4530
* Conductivity SN = 4530
* System UpLoad Time = May 16 2014 00:03:17
* Real-Time Sample Interval = 0.2500 seconds
* System UTC = May 16 2014 00:03:17
# nquan = 7                                 
# nvalues = 609                         
# units = specified
# name 0 = timeS: Time, Elapsed [seconds]
# name 1 = prdM: Pressure, Strain Gauge [db]
# name 2 = tv290C: Temperature [ITS-90, deg C]
# name 3 = c0mS/cm: Conductivity [mS/cm]
# name 4 = sal00: Salinity, Practical [PSU]
# name 5 = sigma-t00: Density [sigma-t, Kg/m^3 ]
# name 6 = flag: flag
# span 0 =    401.017,   2083.272       
# span 1 =      1.000,    305.000       
# span 2 =     3.6493,     6.8228       
# span 3 =  26.094615,  32.847252       
# span 4 =    25.2081,    33.2997       
# span 5 =    19.7373,    26.4418       
# span 6 = 0.0000e+00, 0.0000e+00       
# interval = decibars: 1                
# start_time = May 16 2014 00:03:17 [System UTC, header]
# bad_flag = -9.990e-29
# <Sensors count="3" >
#   <sensor Channel="1" >
#     <!-- Count, Temperature -->
#     <TemperatureSensor SensorID="58" >
#       <SerialNumber>4530</SerialNumber>
#       <CalibrationDate>03-Dec-13</CalibrationDate>
#       <A0>1.22471000e-003</A0>
#       <A1>2.66234600e-004</A1>
#       <A2>-3.25282000e-007</A2>
#       <A3>1.63905300e-007</A3>
#       <Slope>1.00000000</Slope>
#       <Offset>0.0000</Offset>
#     </TemperatureSensor>
#   </sensor>
#   <sensor Channel="2" >
#     <!-- Frequency 0, Conductivity -->
#     <ConductivitySensor SensorID="3" >
#       <SerialNumber>4530</SerialNumber>
#       <CalibrationDate>03-Dec-13</CalibrationDate>
#       <UseG_J>1</UseG_J>
#       <!-- Cell const and series R are applicable only for wide range sensors. -->
#       <SeriesR>0.0000</SeriesR>
#       <CellConst>2000.0000</CellConst>
#       <ConductivityType>0</ConductivityType>
#       <Coefficients equation="0" >
#         <A>0.00000000e+000</A>
#         <B>0.00000000e+000</B>
#         <C>0.00000000e+000</C>
#         <D>0.00000000e+000</D>
#         <M>0.0</M>
#         <CPcor>-9.57000000e-008</CPcor>
#       </Coefficients>
#       <Coefficients equation="1" >
#         <G>-9.84131900e-001</G>
#         <H>1.41458700e-001</H>
#         <I>-1.92288200e-004</I>
#         <J>3.59848200e-005</J>
#         <CPcor>-9.57000000e-008</CPcor>
#         <CTcor>3.2500e-006</CTcor>
#         <!-- WBOTC not applicable unless ConductivityType = 1. -->
#         <WBOTC>0.00000000e+000</WBOTC>
#       </Coefficients>
#       <Slope>1.00000000</Slope>
#       <Offset>0.00000</Offset>
#     </ConductivitySensor>
#   </sensor>
#   <sensor Channel="3" >
#     <!-- Count, Pressure, Strain Gauge -->
#     <PressureSensor SensorID="46" >
#       <SerialNumber>4530</SerialNumber>
#       <CalibrationDate>02-Dec-13</CalibrationDate>
#       <PA0>-3.35712300e-001</PA0>
#       <PA1>1.56795400e-002</PA1>
#       <PA2>-6.60390500e-010</PA2>
#       <PTEMPA0>-6.74611800e+001</PTEMPA0>
#       <PTEMPA1>5.06446900e+001</PTEMPA1>
#       <PTEMPA2>-4.65162800e-001</PTEMPA2>
#       <PTCA0>5.24503600e+005</PTCA0>
#       <PTCA1>-3.17070100e-002</PTCA1>
#       <PTCA2>-4.70494400e-002</PTCA2>
#       <PTCB0>2.49031200e+001</PTCB0>
#       <PTCB1>-5.75000000e-004</PTCB1>
#       <PTCB2>0.00000000e+000</PTCB2>
#       <Offset>0.000000</Offset>
#     </PressureSensor>
#   </sensor>
# </Sensors>
# datcnv_date = May 17 2014 00:57:56, 7.22.2 [datcnv_vars = 4]
# datcnv_in = c:\data\seacat\current\bon044.hex c:\data\seacat\current\bon044.XMLCON
# datcnv_skipover = 0
# filter_date = May 17 2014 00:57:56, 7.22.2
# filter_in = c:\data\seacat\current\bon044.cnv
# filter_low_pass_tc_A = 0.500
# filter_low_pass_tc_B = 2.000
# filter_low_pass_A_vars = prdM tv290C c0mS/cm
# filter_low_pass_B_vars =
# alignctd_date = May 17 2014 00:57:57, 7.22.2
# alignctd_in = c:\data\seacat\current\bon044.cnv
# alignctd_adv = tv290C 0.500                                                                                                                                                                                                        
# wildedit_date = May 17 2014 00:57:57, 7.22.2
# wildedit_in = c:\data\seacat\current\bon044.cnv
# wildedit_pass1_nstd = 2.0
# wildedit_pass2_nstd = 15.0
# wildedit_pass2_mindelta = 1.000e-002
# wildedit_npoint = 100
# wildedit_vars = prdM tv290C c0mS/cm
# wildedit_excl_bad_scans = yes
# binavg_date = May 17 2014 00:57:57, 7.22.2
# binavg_in = c:\data\seacat\current\bon044.cnv
# binavg_bintype = decibars
# binavg_binsize = 1
# binavg_excl_bad_scans = yes
# binavg_skipover = 0
# binavg_surface_bin = no, min = 0.000, max = 0.500, value = 0.000
# Derive_date = May 17 2014 00:57:57, 7.22.2 [derive_vars = 2]
# Derive_in = c:\data\seacat\current\bon044.cnv c:\data\seacat\current\BON044.XMLcon
# file_type = ascii
*END*
    401.017      1.000     6.8199  26.094615    25.2081    19.7373 0.0000e+00
    402.406      2.000     6.8228  31.804417    31.3518    24.5691 0.0000e+00
    403.664      3.000     6.8210  32.705342    32.3381    25.3461 0.0000e+00
    405.019      4.000     6.8153  32.797387    32.4439    25.4301 0.0000e+00
    406.541      5.000     6.8143  32.810970    32.4593    25.4424 0.0000e+00
    417.693      6.000     6.7865  32.835800    32.5124    25.4878 0.0000e+00
    427.409      7.000     6.7232  32.847252    32.5846    25.5530 0.0000e+00
    429.459      8.000     6.6819  32.841771    32.6174    25.5842 0.0000e+00
    431.387      9.000     6.7401  32.840510    32.5602    25.5315 0.0000e+00
    433.372     10.000     6.6357  32.839490    32.6580    25.6222 0.0000e+00
    435.467     11.000     6.5450  32.835867    32.7403    25.6988 0.0000e+00
    437.473     12.000     6.5131  32.836117    32.7707    25.7269 0.0000e+00
    439.437     13.000     6.4979  32.807674    32.7533    25.7151 0.0000e+00
    441.530     14.000     5.9779  32.200772    32.5768    25.6408 0.0000e+00
    443.705     15.000     5.6052  31.809433    32.4951    25.6209 0.0000e+00
    445.845     16.000     5.4902  31.711410    32.4948    25.6340 0.0000e+00
    448.022     17.000     5.4328  31.663665    32.4956    25.6414 0.0000e+00
    450.266     18.000     5.3603  31.607711    32.5018    25.6546 0.0000e+00
    452.615     19.000     5.2102  31.491914    32.5151    25.6821 0.0000e+00
    454.998     20.000     5.0673  31.384487    32.5308    25.7106 0.0000e+00
    457.263     21.000     4.9447  31.287928    32.5391    25.7307 0.0000e+00
    459.542     22.000     4.8178  31.175719    32.5335    25.7401 0.0000e+00
    461.602     23.000     4.7908  31.151325    32.5313    25.7412 0.0000e+00
    463.692     24.000     4.7423  31.108769    32.5292    25.7448 0.0000e+00
    465.830     25.000     4.6321  31.010665    32.5232    25.7518 0.0000e+00
    467.902     26.000     4.4937  30.888954    32.5173    25.7617 0.0000e+00
    469.856     27.000     4.4789  30.880659    32.5218    25.7667 0.0000e+00
    471.841     28.000     4.5081  30.911586    32.5285    25.7690 0.0000e+00
    473.930     29.000     4.5567  30.960258    32.5368    25.7705 0.0000e+00
    476.042     30.000     4.6591  31.067629    32.5602    25.7782 0.0000e+00
    478.245     31.000     4.7223  31.143666    32.5856    25.7917 0.0000e+00
    480.478     32.000     4.7207  31.152328    32.5967    25.8007 0.0000e+00
    482.562     33.000     4.7080  31.145967    32.6014    25.8057 0.0000e+00
    484.790     34.000     4.6962  31.138649    32.6040    25.8090 0.0000e+00
    487.374     35.000     4.6879  31.134353    32.6067    25.8120 0.0000e+00
    489.565     36.000     4.6751  31.127102    32.6103    25.8163 0.0000e+00
    491.638     37.000     4.6450  31.106154    32.6152    25.8234 0.0000e+00
    493.736     38.000     4.6230  31.094479    32.6228    25.8318 0.0000e+00
    495.820     39.000     4.6402  31.119986    32.6350    25.8396 0.0000e+00
    497.896     40.000     4.6031  31.091077    32.6375    25.8455 0.0000e+00
    500.001     41.000     4.5247  31.022761    32.6349    25.8517 0.0000e+00
    502.094     42.000     4.4833  30.988875    32.6358    25.8568 0.0000e+00
    504.080     43.000     4.4714  30.980392    32.6372    25.8591 0.0000e+00
    505.982     44.000     4.4715  30.984448    32.6413    25.8624 0.0000e+00
    508.052     45.000     4.4562  30.973042    32.6426    25.8650 0.0000e+00
    510.197     46.000     4.4511  30.970783    32.6445    25.8671 0.0000e+00
    512.122     47.000     4.4648  30.989106    32.6518    25.8714 0.0000e+00
    514.071     48.000     4.4791  31.006192    32.6571    25.8741 0.0000e+00
    516.007     49.000     4.4936  31.022079    32.6608    25.8755 0.0000e+00
    517.980     50.000     4.5033  31.033229    32.6637    25.8768 0.0000e+00
    519.891     51.000     4.4987  31.030056    32.6640    25.8775 0.0000e+00
    521.756     52.000     4.4971  31.030055    32.6651    25.8786 0.0000e+00
    523.708     53.000     4.4963  31.030523    32.6659    25.8793 0.0000e+00
    525.639     54.000     4.4983  31.033572    32.6670    25.8799 0.0000e+00
    527.443     55.000     4.5088  31.046088    32.6706    25.8817 0.0000e+00
    529.300     56.000     4.5155  31.055977    32.6750    25.8845 0.0000e+00
    531.203     57.000     4.5090  31.054114    32.6788    25.8882 0.0000e+00
    533.159     58.000     4.4668  31.017608    32.6775    25.8916 0.0000e+00
    535.004     59.000     4.4258  30.981130    32.6750    25.8939 0.0000e+00
    536.787     60.000     4.3825  30.942456    32.6722    25.8962 0.0000e+00
    538.676     61.000     4.3497  30.914303    32.6713    25.8988 0.0000e+00
    540.603     62.000     4.3485  30.917065    32.6752    25.9020 0.0000e+00
    542.504     63.000     4.3514  30.921938    32.6775    25.9036 0.0000e+00
    544.390     64.000     4.3668  30.938900    32.6816    25.9052 0.0000e+00
    546.166     65.000     4.3940  30.968566    32.6888    25.9081 0.0000e+00
    547.988     66.000     4.4041  30.980859    32.6926    25.9101 0.0000e+00
    549.968     67.000     4.3887  30.967998    32.6923    25.9115 0.0000e+00
    551.992     68.000     4.3497  30.933380    32.6900    25.9137 0.0000e+00
    553.932     69.000     4.3312  30.918758    32.6908    25.9162 0.0000e+00
    555.860     70.000     4.3280  30.918279    32.6929    25.9182 0.0000e+00
    557.806     71.000     4.3245  30.919027    32.6967    25.9216 0.0000e+00
    559.703     72.000     4.3282  30.924829    32.6993    25.9233 0.0000e+00
    561.559     73.000     4.3550  30.954198    32.7066    25.9262 0.0000e+00
    563.567     74.000     4.3866  30.988863    32.7152    25.9299 0.0000e+00
    565.593     75.000     4.3966  30.999660    32.7174    25.9305 0.0000e+00
    567.539     76.000     4.4036  31.007657    32.7193    25.9313 0.0000e+00
    569.437     77.000     4.4009  31.007495    32.7212    25.9332 0.0000e+00
    571.356     78.000     4.3449  30.956492    32.7167    25.9353 0.0000e+00
    573.252     79.000     4.3148  30.930103    32.7152    25.9372 0.0000e+00
    575.197     80.000     4.3042  30.921659    32.7153    25.9384 0.0000e+00
    577.188     81.000     4.3178  30.937473    32.7198    25.9406 0.0000e+00
    579.041     82.000     4.3361  30.956773    32.7237    25.9418 0.0000e+00
    580.815     83.000     4.3182  30.940595    32.7221    25.9423 0.0000e+00
    582.577     84.000     4.3071  30.932634    32.7233    25.9444 0.0000e+00
    584.363     85.000     4.3038  30.931243    32.7244    25.9457 0.0000e+00
    586.280     86.000     4.3094  30.939037    32.7274    25.9475 0.0000e+00
    588.128     87.000     4.3048  30.939157    32.7316    25.9513 0.0000e+00
    589.897     88.000     4.2860  30.925065    32.7333    25.9546 0.0000e+00
    591.719     89.000     4.2796  30.920760    32.7341    25.9559 0.0000e+00
    593.519     90.000     4.2779  30.920296    32.7347    25.9565 0.0000e+00
    595.289     91.000     4.2728  30.918799    32.7375    25.9593 0.0000e+00
    597.171     92.000     4.2615  30.912839    32.7413    25.9634 0.0000e+00
    599.249     93.000     4.2591  30.913442    32.7439    25.9657 0.0000e+00
    601.123     94.000     4.2610  30.915980    32.7444    25.9660 0.0000e+00
    602.918     95.000     4.2629  30.918640    32.7452    25.9663 0.0000e+00
    604.790     96.000     4.2644  30.921288    32.7462    25.9671 0.0000e+00
    606.788     97.000     4.2688  30.926878    32.7479    25.9679 0.0000e+00
    608.827     98.000     4.2804  30.939919    32.7511    25.9693 0.0000e+00
    610.657     99.000     4.2917  30.953111    32.7548    25.9711 0.0000e+00
    612.456    100.000     4.2989  30.966058    32.7623    25.9763 0.0000e+00
    614.408    101.000     4.3132  30.992587    32.7786    25.9878 0.0000e+00
    616.355    102.000     4.3251  31.008338    32.7847    25.9914 0.0000e+00
    618.162    103.000     4.3303  31.015789    32.7877    25.9933 0.0000e+00
    620.013    104.000     4.3323  31.018905    32.7889    25.9940 0.0000e+00
    621.916    105.000     4.3359  31.024196    32.7910    25.9953 0.0000e+00
    623.727    106.000     4.3417  31.035116    32.7975    25.9998 0.0000e+00
    625.495    107.000     4.3466  31.045798    32.8046    26.0050 0.0000e+00
    627.385    108.000     4.3479  31.051054    32.8089    26.0083 0.0000e+00
    629.367    109.000     4.3463  31.051674    32.8107    26.0099 0.0000e+00
    631.142    110.000     4.3447  31.051895    32.8121    26.0111 0.0000e+00
    632.779    111.000     4.3441  31.052823    32.8132    26.0121 0.0000e+00
    634.620    112.000     4.3444  31.054575    32.8145    26.0130 0.0000e+00
    636.630    113.000     4.3463  31.057668    32.8157    26.0138 0.0000e+00
    638.424    114.000     4.3491  31.062554    32.8181    26.0154 0.0000e+00
    640.150    115.000     4.3448  31.062305    32.8216    26.0186 0.0000e+00
    642.024    116.000     4.3425  31.063850    32.8252    26.0217 0.0000e+00
    643.875    117.000     4.3494  31.072794    32.8282    26.0235 0.0000e+00
    645.740    118.000     4.3693  31.095331    32.8343    26.0262 0.0000e+00
    647.776    119.000     4.3806  31.108744    32.8382    26.0281 0.0000e+00
    649.679    120.000     4.3801  31.109309    32.8388    26.0287 0.0000e+00
    651.417    121.000     4.3735  31.105409    32.8403    26.0306 0.0000e+00
    653.323    122.000     4.3623  31.098565    32.8430    26.0338 0.0000e+00
    655.373    123.000     4.3567  31.095182    32.8441    26.0353 0.0000e+00
    657.240    124.000     4.3532  31.093336    32.8449    26.0363 0.0000e+00
    659.044    125.000     4.3450  31.087506    32.8457    26.0378 0.0000e+00
    660.899    126.000     4.2933  31.041750    32.8432    26.0411 0.0000e+00
    662.813    127.000     4.2185  30.971492    32.8349    26.0422 0.0000e+00
    664.711    128.000     4.1927  30.949249    32.8340    26.0441 0.0000e+00
    666.544    129.000     4.1720  30.932729    32.8348    26.0468 0.0000e+00
    668.418    130.000     4.1613  30.927294    32.8386    26.0509 0.0000e+00
    670.349    131.000     4.1579  30.926740    32.8408    26.0530 0.0000e+00
    672.225    132.000     4.1542  30.926053    32.8432    26.0553 0.0000e+00
    673.989    133.000     4.1464  30.922320    32.8461    26.0583 0.0000e+00
    675.823    134.000     4.1386  30.918373    32.8487    26.0612 0.0000e+00
    677.825    135.000     4.1355  30.918040    32.8509    26.0633 0.0000e+00
    679.651    136.000     4.1330  30.917922    32.8528    26.0650 0.0000e+00
    681.368    137.000     4.1318  30.919016    32.8547    26.0667 0.0000e+00
    683.271    138.000     4.1308  30.921036    32.8576    26.0691 0.0000e+00
    685.286    139.000     4.1334  30.927161    32.8617    26.0720 0.0000e+00
    687.188    140.000     4.1351  30.930761    32.8637    26.0735 0.0000e+00
    688.935    141.000     4.1363  30.933285    32.8649    26.0744 0.0000e+00
    690.747    142.000     4.1392  30.938228    32.8673    26.0760 0.0000e+00
    692.659    143.000     4.1391  30.941228    32.8704    26.0785 0.0000e+00
    694.420    144.000     4.1354  30.940828    32.8732    26.0810 0.0000e+00
    696.296    145.000     4.1328  30.942006    32.8766    26.0840 0.0000e+00
    698.291    146.000     4.1321  30.943564    32.8787    26.0857 0.0000e+00
    700.215    147.000     4.1309  30.945174    32.8812    26.0878 0.0000e+00
    702.093    148.000     4.1266  30.946601    32.8867    26.0926 0.0000e+00
    703.765    149.000     4.1229  30.948600    32.8922    26.0974 0.0000e+00
    705.574    150.000     4.1218  30.949405    32.8938    26.0987 0.0000e+00
    707.552    151.000     4.1181  30.948013    32.8953    26.1003 0.0000e+00
    709.427    152.000     4.1085  30.942510    32.8979    26.1034 0.0000e+00
    711.226    153.000     4.1014  30.942478    32.9045    26.1093 0.0000e+00
    713.008    154.000     4.0994  30.945021    32.9090    26.1131 0.0000e+00
    714.913    155.000     4.0990  30.946080    32.9101    26.1140 0.0000e+00
    716.829    156.000     4.0981  30.946311    32.9108    26.1146 0.0000e+00
    718.631    157.000     4.0959  30.946079    32.9122    26.1160 0.0000e+00
    720.480    158.000     4.0912  30.943955    32.9139    26.1178 0.0000e+00
    722.423    159.000     4.0864  30.943374    32.9175    26.1211 0.0000e+00
    724.349    160.000     4.0962  30.958319    32.9247    26.1259 0.0000e+00
    726.191    161.000     4.1317  31.001633    32.9396    26.1342 0.0000e+00
    727.974    162.000     4.1429  31.016262    32.9451    26.1374 0.0000e+00
    729.784    163.000     4.1412  31.016108    32.9461    26.1383 0.0000e+00
    731.668    164.000     4.1398  31.015881    32.9467    26.1390 0.0000e+00
    733.511    165.000     4.1395  31.016868    32.9476    26.1398 0.0000e+00
    735.368    166.000     4.1426  31.022383    32.9505    26.1417 0.0000e+00
    737.186    167.000     4.1452  31.030246    32.9566    26.1463 0.0000e+00
    738.936    168.000     4.1547  31.044930    32.9639    26.1511 0.0000e+00
    740.820    169.000     4.1627  31.054640    32.9667    26.1526 0.0000e+00
    742.791    170.000     4.1656  31.059037    32.9685    26.1537 0.0000e+00
    744.658    171.000     4.1681  31.064678    32.9721    26.1563 0.0000e+00
    746.480    172.000     4.1685  31.068549    32.9757    26.1591 0.0000e+00
    748.432    173.000     4.1654  31.069198    32.9791    26.1621 0.0000e+00
    750.351    174.000     4.1657  31.074048    32.9840    26.1660 0.0000e+00
    752.198    175.000     4.1615  31.074080    32.9877    26.1694 0.0000e+00
    754.145    176.000     4.1210  31.039129    32.9867    26.1727 0.0000e+00
    756.208    177.000     4.0504  30.975295    32.9819    26.1760 0.0000e+00
    758.198    178.000     4.0403  30.969593    32.9848    26.1793 0.0000e+00
    760.039    179.000     4.0424  30.973968    32.9874    26.1811 0.0000e+00
    761.995    180.000     4.0540  30.989774    32.9938    26.1851 0.0000e+00
    764.024    181.000     4.0409  30.982132    32.9974    26.1893 0.0000e+00
    765.921    182.000     4.0168  30.961665    32.9970    26.1913 0.0000e+00
    767.737    183.000     4.0046  30.954088    32.9998    26.1948 0.0000e+00
    769.641    184.000     3.9940  30.947972    33.0028    26.1982 0.0000e+00
    771.635    185.000     3.9857  30.945658    33.0079    26.2030 0.0000e+00
    773.526    186.000     3.9770  30.944084    33.0142    26.2090 0.0000e+00
    775.309    187.000     3.9721  30.942055    33.0163    26.2111 0.0000e+00
    777.190    188.000     3.9645  30.938264    33.0189    26.2139 0.0000e+00
    779.038    189.000     3.9552  30.934085    33.0228    26.2180 0.0000e+00
    780.901    190.000     3.9445  30.929464    33.0276    26.2229 0.0000e+00
    782.839    191.000     3.9310  30.923576    33.0338    26.2291 0.0000e+00
    784.709    192.000     3.9252  30.921212    33.0363    26.2316 0.0000e+00
    786.433    193.000     3.9221  30.920143    33.0376    26.2330 0.0000e+00
    788.169    194.000     3.9182  30.918779    33.0394    26.2348 0.0000e+00
    790.073    195.000     3.9109  30.915264    33.0421    26.2377 0.0000e+00
    792.041    196.000     3.9005  30.910209    33.0461    26.2419 0.0000e+00
    793.773    197.000     3.8938  30.907513    33.0492    26.2450 0.0000e+00
    795.369    198.000     3.8869  30.905514    33.0532    26.2489 0.0000e+00
    796.985    199.000     3.8798  30.903040    33.0570    26.2526 0.0000e+00
    798.671    200.000     3.8740  30.900913    33.0598    26.2554 0.0000e+00
    800.332    201.000     3.8685  30.898620    33.0621    26.2577 0.0000e+00
    801.971    202.000     3.8594  30.893477    33.0647    26.2607 0.0000e+00
    803.613    203.000     3.8497  30.888140    33.0676    26.2640 0.0000e+00
    805.326    204.000     3.8446  30.885631    33.0693    26.2658 0.0000e+00
    807.024    205.000     3.8420  30.884519    33.0701    26.2667 0.0000e+00
    808.675    206.000     3.8397  30.883686    33.0709    26.2676 0.0000e+00
    810.331    207.000     3.8382  30.883225    33.0713    26.2681 0.0000e+00
    812.052    208.000     3.8362  30.882488    33.0720    26.2688 0.0000e+00
    813.910    209.000     3.8333  30.881500    33.0732    26.2700 0.0000e+00
    815.740    210.000     3.8261  30.877537    33.0753    26.2724 0.0000e+00
    817.576    211.000     3.8129  30.868747    33.0777    26.2756 0.0000e+00
    819.371    212.000     3.8024  30.862463    33.0803    26.2787 0.0000e+00
    821.116    213.000     3.7964  30.859337    33.0822    26.2807 0.0000e+00
    822.993    214.000     3.7799  30.846923    33.0836    26.2835 0.0000e+00
    824.887    215.000     3.7394  30.811934    33.0825    26.2865 0.0000e+00
    826.621    216.000     3.7086  30.785516    33.0818    26.2889 0.0000e+00
    828.298    217.000     3.6851  30.765535    33.0813    26.2908 0.0000e+00
    830.027    218.000     3.6635  30.747565    33.0813    26.2928 0.0000e+00
    831.824    219.000     3.6505  30.737402    33.0818    26.2945 0.0000e+00
    833.571    220.000     3.6525  30.742010    33.0847    26.2967 0.0000e+00
    835.211    221.000     3.6613  30.754678    33.0904    26.3003 0.0000e+00
    836.835    222.000     3.6577  30.755150    33.0941    26.3036 0.0000e+00
    838.459    223.000     3.6524  30.752810    33.0961    26.3058 0.0000e+00
    840.109    224.000     3.6515  30.754196    33.0982    26.3075 0.0000e+00
    841.766    225.000     3.6687  30.771952    33.1014    26.3084 0.0000e+00
    843.406    226.000     3.7093  30.811546    33.1068    26.3088 0.0000e+00
    845.031    227.000     3.7937  30.894615    33.1195    26.3107 0.0000e+00
    846.671    228.000     3.9031  31.009249    33.1441    26.3196 0.0000e+00
    848.330    229.000     3.9308  31.036064    33.1473    26.3194 0.0000e+00
    850.011    230.000     3.9408  31.046927    33.1495    26.3201 0.0000e+00
    851.699    231.000     3.9395  31.047441    33.1509    26.3214 0.0000e+00
    853.276    232.000     3.9071  31.018928    33.1494    26.3234 0.0000e+00
    854.870    233.000     3.8751  30.991623    33.1489    26.3262 0.0000e+00
    856.612    234.000     3.8397  30.961726    33.1488    26.3296 0.0000e+00
    858.298    235.000     3.7941  30.920570    33.1457    26.3315 0.0000e+00
    859.867    236.000     3.7886  30.916951    33.1464    26.3327 0.0000e+00
    861.494    237.000     3.7982  30.926882    33.1480    26.3330 0.0000e+00
    863.166    238.000     3.8159  30.944861    33.1509    26.3335 0.0000e+00
    864.747    239.000     3.8331  30.962158    33.1534    26.3339 0.0000e+00
    866.304    240.000     3.8531  30.981971    33.1561    26.3341 0.0000e+00
    867.982    241.000     3.8835  31.013823    33.1626    26.3362 0.0000e+00
    869.710    242.000     3.8865  31.017891    33.1638    26.3369 0.0000e+00
    871.275    243.000     3.9004  31.033924    33.1682    26.3390 0.0000e+00
    872.808    244.000     3.9147  31.049535    33.1717    26.3404 0.0000e+00
    874.471    245.000     3.9175  31.053015    33.1725    26.3407 0.0000e+00
    876.197    246.000     3.9228  31.059937    33.1748    26.3420 0.0000e+00
    877.756    247.000     3.9283  31.066664    33.1766    26.3430 0.0000e+00
    879.254    248.000     3.9303  31.069592    33.1776    26.3435 0.0000e+00
    880.897    249.000     3.9297  31.069945    33.1781    26.3440 0.0000e+00
    882.655    250.000     3.9297  31.071162    33.1790    26.3447 0.0000e+00
    884.286    251.000     3.9313  31.074686    33.1810    26.3462 0.0000e+00
    885.789    252.000     3.9308  31.076671    33.1833    26.3481 0.0000e+00
    887.370    253.000     3.9278  31.075487    33.1845    26.3492 0.0000e+00
    889.121    254.000     3.9257  31.074279    33.1846    26.3496 0.0000e+00
    890.745    255.000     3.9239  31.073448    33.1850    26.3500 0.0000e+00
    892.285    256.000     3.9221  31.072374    33.1850    26.3502 0.0000e+00
    893.954    257.000     3.9207  31.071676    33.1851    26.3504 0.0000e+00
    895.651    258.000     3.9199  31.071504    33.1852    26.3506 0.0000e+00
    897.249    259.000     3.9164  31.069045    33.1853    26.3510 0.0000e+00
    898.799    260.000     3.9091  31.063272    33.1853    26.3518 0.0000e+00
    900.366    261.000     3.8856  31.042477    33.1840    26.3530 0.0000e+00
    901.942    262.000     3.8519  31.011893    33.1814    26.3543 0.0000e+00
    903.516    263.000     3.8328  30.995615    33.1809    26.3558 0.0000e+00
    905.093    264.000     3.8180  30.983345    33.1809    26.3572 0.0000e+00
    906.731    265.000     3.7939  30.962438    33.1800    26.3588 0.0000e+00
    908.398    266.000     3.7682  30.939680    33.1785    26.3602 0.0000e+00
    909.966    267.000     3.7764  30.950837    33.1829    26.3629 0.0000e+00
    911.466    268.000     3.7950  30.972777    33.1896    26.3664 0.0000e+00
    913.142    269.000     3.8174  30.996109    33.1940    26.3677 0.0000e+00
    914.914    270.000     3.8830  31.062531    33.2057    26.3706 0.0000e+00
    916.524    271.000     3.9483  31.128906    33.2175    26.3735 0.0000e+00
    918.074    272.000     3.9961  31.177832    33.2264    26.3758 0.0000e+00
    919.788    273.000     4.0206  31.203141    33.2310    26.3770 0.0000e+00
    921.612    274.000     4.0259  31.209514    33.2326    26.3777 0.0000e+00
    923.313    275.000     4.0226  31.208378    33.2341    26.3793 0.0000e+00
    924.945    276.000     4.0077  31.196782    33.2350    26.3815 0.0000e+00
    926.618    277.000     3.9829  31.176768    33.2359    26.3847 0.0000e+00
    928.346    278.000     3.9596  31.156725    33.2353    26.3865 0.0000e+00
    930.092    279.000     3.9506  31.150340    33.2364    26.3883 0.0000e+00
    931.784    280.000     3.9290  31.131696    33.2357    26.3899 0.0000e+00
    933.468    281.000     3.8601  31.070073    33.2321    26.3938 0.0000e+00
    935.209    282.000     3.7997  31.017198    33.2302    26.3982 0.0000e+00
    936.864    283.000     3.7714  30.993583    33.2304    26.4012 0.0000e+00
    938.353    284.000     3.7646  30.988927    33.2313    26.4025 0.0000e+00
    939.843    285.000     3.7720  30.998351    33.2344    26.4043 0.0000e+00
    941.555    286.000     3.7861  31.014984    33.2393    26.4068 0.0000e+00
    943.335    287.000     3.7921  31.021827    33.2408    26.4074 0.0000e+00
    944.838    288.000     3.7957  31.025963    33.2416    26.4077 0.0000e+00
    946.223    289.000     3.8014  31.032854    33.2434    26.4086 0.0000e+00
    947.762    290.000     3.8046  31.036895    33.2444    26.4091 0.0000e+00
    949.486    291.000     3.8089  31.042467    33.2462    26.4100 0.0000e+00
    951.080    292.000     3.8184  31.052739    33.2482    26.4107 0.0000e+00
    952.585    293.000     3.8437  31.078760    33.2528    26.4119 0.0000e+00
    954.193    294.000     3.8825  31.120876    33.2628    26.4160 0.0000e+00
    955.879    295.000     3.9019  31.143736    33.2697    26.4196 0.0000e+00
    957.397    296.000     3.9101  31.153603    33.2725    26.4210 0.0000e+00
    958.831    297.000     3.9243  31.169453    33.2763    26.4227 0.0000e+00
    960.371    298.000     3.9552  31.204435    33.2858    26.4271 0.0000e+00
    962.110    299.000     3.9831  31.235306    33.2935    26.4304 0.0000e+00
    963.778    300.000     3.9912  31.245351    33.2966    26.4321 0.0000e+00
    965.369    301.000     3.9789  31.237813    33.2997    26.4358 0.0000e+00
    967.090    302.000     3.9348  31.199105    33.2981    26.4390 0.0000e+00
    968.802    303.000     3.8943  31.162531    33.2955    26.4409 0.0000e+00
    970.577    304.000     3.8786  31.148829    33.2947    26.4418 0.0000e+00
    981.410    305.000     3.8716  31.142456    33.2937    26.4417 0.0000e+00
    982.781    304.000     3.8766  31.146567    33.2940    26.4415 0.0000e+00
    985.012    303.000     3.8883  31.156783    33.2948    26.4409 0.0000e+00
    987.896    302.000     3.9155  31.181009    33.2963    26.4394 0.0000e+00
    990.485    301.000     3.9624  31.222621    33.2984    26.4365 0.0000e+00
    993.165    300.000     3.9857  31.240881    33.2969    26.4329 0.0000e+00
    995.942    299.000     3.9818  31.234650    33.2940    26.4310 0.0000e+00
    998.688    298.000     3.9539  31.203947    33.2866    26.4279 0.0000e+00
   1001.827    297.000     3.9192  31.165035    33.2763    26.4231 0.0000e+00
   1005.054    296.000     3.9060  31.149344    33.2716    26.4207 0.0000e+00
   1008.451    295.000     3.8954  31.135787    33.2669    26.4180 0.0000e+00
   1011.656    294.000     3.8683  31.105599    33.2591    26.4145 0.0000e+00
   1014.755    293.000     3.8309  31.066531    33.2513    26.4120 0.0000e+00
   1018.238    292.000     3.8122  31.046748    33.2474    26.4107 0.0000e+00
   1021.317    291.000     3.8068  31.040275    33.2457    26.4099 0.0000e+00
   1024.262    290.000     3.8039  31.036273    33.2444    26.4091 0.0000e+00
   1027.236    289.000     3.7973  31.028640    33.2426    26.4083 0.0000e+00
   1030.584    288.000     3.7920  31.022333    33.2410    26.4076 0.0000e+00
   1033.619    287.000     3.7868  31.015926    33.2392    26.4067 0.0000e+00
   1036.662    286.000     3.7675  30.993178    33.2323    26.4031 0.0000e+00
   1040.028    285.000     3.7630  30.986692    33.2297    26.4014 0.0000e+00
   1043.164    284.000     3.7744  30.995128    33.2287    26.3995 0.0000e+00
   1046.705    283.000     3.8033  31.018660    33.2278    26.3960 0.0000e+00
   1049.727    282.000     3.8674  31.075615    33.2308    26.3920 0.0000e+00
   1053.065    281.000     3.9124  31.115067    33.2324    26.3889 0.0000e+00
   1056.562    280.000     3.9242  31.124729    33.2323    26.3877 0.0000e+00
   1059.669    279.000     3.9552  31.152066    33.2338    26.3857 0.0000e+00
   1062.975    278.000     3.9948  31.187448    33.2360    26.3835 0.0000e+00
   1066.254    277.000     4.0319  31.220697    33.2382    26.3816 0.0000e+00
   1069.468    276.000     4.0327  31.218624    33.2354    26.3793 0.0000e+00
   1072.774    275.000     4.0213  31.206059    33.2327    26.3783 0.0000e+00
   1075.872    274.000     3.9945  31.178836    33.2282    26.3774 0.0000e+00
   1079.177    273.000     3.9094  31.093637    33.2142    26.3747 0.0000e+00
   1082.641    272.000     3.8363  31.020015    33.2016    26.3719 0.0000e+00
   1085.268    271.000     3.8143  30.997114    33.1973    26.3706 0.0000e+00
   1088.231    270.000     3.7646  30.944247    33.1855    26.3661 0.0000e+00
   1090.913    269.000     3.7419  30.919452    33.1796    26.3636 0.0000e+00
   1093.823    268.000     3.7342  30.910723    33.1776    26.3627 0.0000e+00
   1096.676    267.000     3.7338  30.908419    33.1757    26.3613 0.0000e+00
   1099.393    266.000     3.7705  30.941512    33.1783    26.3598 0.0000e+00
   1102.397    265.000     3.8068  30.974362    33.1810    26.3584 0.0000e+00
   1105.303    264.000     3.8247  30.990653    33.1827    26.3580 0.0000e+00
   1108.033    263.000     3.8363  31.000860    33.1836    26.3576 0.0000e+00
   1111.191    262.000     3.8447  31.007389    33.1833    26.3565 0.0000e+00
   1114.047    261.000     3.8538  31.014500    33.1831    26.3554 0.0000e+00
   1117.057    260.000     3.8578  31.017326    33.1829    26.3549 0.0000e+00
   1120.198    259.000     3.8896  31.045307    33.1843    26.3529 0.0000e+00
   1123.249    258.000     3.9146  31.067504    33.1858    26.3516 0.0000e+00
   1126.226    257.000     3.9172  31.069733    33.1863    26.3518 0.0000e+00
   1129.310    256.000     3.9198  31.071615    33.1864    26.3516 0.0000e+00
   1132.640    255.000     3.9216  31.072682    33.1864    26.3514 0.0000e+00
   1135.564    254.000     3.9234  31.073780    33.1864    26.3512 0.0000e+00
   1138.348    253.000     3.9249  31.074417    33.1861    26.3509 0.0000e+00
   1141.289    252.000     3.9258  31.074079    33.1853    26.3501 0.0000e+00
   1143.815    251.000     3.9279  31.073376    33.1829    26.3480 0.0000e+00
   1146.644    250.000     3.9312  31.074671    33.1816    26.3466 0.0000e+00
   1149.370    249.000     3.9289  31.070528    33.1796    26.3452 0.0000e+00
   1152.052    248.000     3.9270  31.067709    33.1787    26.3447 0.0000e+00
   1154.745    247.000     3.9216  31.061740    33.1776    26.3444 0.0000e+00
   1157.388    246.000     3.9047  31.044215    33.1745    26.3436 0.0000e+00
   1160.720    245.000     3.8942  31.033770    33.1733    26.3437 0.0000e+00
   1163.811    244.000     3.8500  30.987690    33.1640    26.3406 0.0000e+00
   1166.312    243.000     3.7885  30.923386    33.1505    26.3359 0.0000e+00
   1169.240    242.000     3.7745  30.909160    33.1484    26.3356 0.0000e+00
   1171.934    241.000     3.7705  30.904540    33.1475    26.3352 0.0000e+00
   1174.626    240.000     3.7673  30.900864    33.1469    26.3351 0.0000e+00
   1177.356    239.000     3.7669  30.899832    33.1466    26.3349 0.0000e+00
   1180.042    238.000     3.7666  30.898854    33.1462    26.3346 0.0000e+00
   1182.967    237.000     3.7674  30.899028    33.1461    26.3345 0.0000e+00
   1185.568    236.000     3.7723  30.902753    33.1461    26.3340 0.0000e+00
   1188.530    235.000     3.8082  30.933966    33.1473    26.3314 0.0000e+00
   1191.875    234.000     3.8735  30.991992    33.1505    26.3276 0.0000e+00
   1195.235    233.000     3.8956  31.009211    33.1490    26.3242 0.0000e+00
   1198.496    232.000     3.9255  31.035763    33.1507    26.3226 0.0000e+00
   1201.788    231.000     3.9306  31.040154    33.1513    26.3226 0.0000e+00
   1205.065    230.000     3.9215  31.031234    33.1504    26.3228 0.0000e+00
   1207.591    229.000     3.8430  30.950993    33.1354    26.3185 0.0000e+00
   1210.796    228.000     3.7291  30.834603    33.1131    26.3119 0.0000e+00
   1213.529    227.000     3.7066  30.812661    33.1103    26.3119 0.0000e+00
   1216.603    226.000     3.6986  30.804046    33.1087    26.3113 0.0000e+00
   1219.416    225.000     3.6636  30.767090    33.1007    26.3084 0.0000e+00
   1222.472    224.000     3.6530  30.756162    33.0990    26.3080 0.0000e+00
   1225.906    223.000     3.6564  30.757483    33.0977    26.3066 0.0000e+00
   1228.610    222.000     3.6624  30.758761    33.0936    26.3028 0.0000e+00
   1231.728    221.000     3.6493  30.739336    33.0843    26.2966 0.0000e+00
   1234.945    220.000     3.6634  30.748238    33.0811    26.2927 0.0000e+00
   1237.936    219.000     3.6890  30.769721    33.0813    26.2904 0.0000e+00
   1241.038    218.000     3.7083  30.785881    33.0815    26.2887 0.0000e+00
   1244.097    217.000     3.7355  30.808938    33.0818    26.2864 0.0000e+00
   1247.526    216.000     3.7798  30.847163    33.0829    26.2830 0.0000e+00
   1251.188    215.000     3.7927  30.856706    33.0817    26.2808 0.0000e+00
   1255.016    214.000     3.7949  30.856856    33.0802    26.2793 0.0000e+00
   1258.583    213.000     3.8024  30.861861    33.0791    26.2777 0.0000e+00
   1261.820    212.000     3.8075  30.864992    33.0782    26.2765 0.0000e+00
   1264.796    211.000     3.8082  30.864892    33.0778    26.2762 0.0000e+00
   1268.238    210.000     3.8151  30.868687    33.0759    26.2739 0.0000e+00
   1271.384    209.000     3.8312  30.879333    33.0728    26.2699 0.0000e+00
   1274.498    208.000     3.8353  30.881447    33.0716    26.2686 0.0000e+00
   1277.643    207.000     3.8370  30.882171    33.0713    26.2682 0.0000e+00
   1281.341    206.000     3.8414  30.884308    33.0699    26.2666 0.0000e+00
   1284.669    205.000     3.8462  30.886707    33.0684    26.2650 0.0000e+00
   1287.963    204.000     3.8543  30.891101    33.0660    26.2622 0.0000e+00
   1291.436    203.000     3.8647  30.896572    33.0625    26.2584 0.0000e+00
   1294.864    202.000     3.8688  30.898327    33.0609    26.2568 0.0000e+00
   1298.424    201.000     3.8725  30.899851    33.0595    26.2553 0.0000e+00
   1301.718    200.000     3.8765  30.901065    33.0574    26.2533 0.0000e+00
   1305.294    199.000     3.8846  30.904141    33.0534    26.2493 0.0000e+00
   1308.671    198.000     3.8881  30.904725    33.0511    26.2471 0.0000e+00
   1312.296    197.000     3.8900  30.904548    33.0495    26.2456 0.0000e+00
   1315.846    196.000     3.8951  30.906787    33.0475    26.2435 0.0000e+00
   1319.006    195.000     3.9052  30.911811    33.0438    26.2396 0.0000e+00
   1322.668    194.000     3.9131  30.915641    33.0409    26.2365 0.0000e+00
   1326.008    193.000     3.9200  30.918670    33.0380    26.2335 0.0000e+00
   1329.187    192.000     3.9231  30.919755    33.0367    26.2322 0.0000e+00
   1332.807    191.000     3.9340  30.925238    33.0327    26.2279 0.0000e+00
   1336.145    190.000     3.9468  30.931054    33.0272    26.2223 0.0000e+00
   1339.710    189.000     3.9486  30.930416    33.0251    26.2205 0.0000e+00
   1343.382    188.000     3.9577  30.935002    33.0219    26.2170 0.0000e+00
   1347.255    187.000     3.9672  30.940455    33.0193    26.2140 0.0000e+00
   1350.700    186.000     3.9690  30.941084    33.0188    26.2134 0.0000e+00
   1354.506    185.000     3.9752  30.943022    33.0153    26.2100 0.0000e+00
   1358.219    184.000     3.9857  30.945228    33.0079    26.2031 0.0000e+00
   1361.992    183.000     3.9958  30.949006    33.0027    26.1979 0.0000e+00
   1365.988    182.000     4.0207  30.968046    33.0006    26.1938 0.0000e+00
   1370.164    181.000     4.0567  30.999364    33.0019    26.1912 0.0000e+00
   1373.815    180.000     4.0406  30.977522    32.9928    26.1856 0.0000e+00
   1378.011    179.000     4.0335  30.967170    32.9883    26.1827 0.0000e+00
   1381.701    178.000     4.0378  30.969016    32.9867    26.1810 0.0000e+00
   1385.344    177.000     4.0630  30.989332    32.9858    26.1778 0.0000e+00
   1388.853    176.000     4.1094  31.030597    32.9883    26.1751 0.0000e+00
   1392.408    175.000     4.1411  31.058897    32.9903    26.1735 0.0000e+00
   1395.783    174.000     4.1598  31.074113    32.9899    26.1713 0.0000e+00
   1399.268    173.000     4.1623  31.069460    32.9825    26.1651 0.0000e+00
   1402.882    172.000     4.1662  31.067952    32.9773    26.1606 0.0000e+00
   1406.136    171.000     4.1646  31.061127    32.9714    26.1561 0.0000e+00
   1409.340    170.000     4.1539  31.047801    32.9670    26.1537 0.0000e+00
   1412.707    169.000     4.1402  31.029414    32.9596    26.1492 0.0000e+00
   1415.977    168.000     4.1392  31.022643    32.9532    26.1442 0.0000e+00
   1419.290    167.000     4.1468  31.028675    32.9532    26.1434 0.0000e+00
   1422.490    166.000     4.1494  31.030335    32.9530    26.1430 0.0000e+00
   1426.010    165.000     4.1492  31.028889    32.9521    26.1423 0.0000e+00
   1429.089    164.000     4.1480  31.026659    32.9512    26.1417 0.0000e+00
   1432.529    163.000     4.1396  31.015338    32.9468    26.1391 0.0000e+00
   1435.778    162.000     4.1012  30.967905    32.9300    26.1296 0.0000e+00
   1439.072    161.000     4.0847  30.945386    32.9205    26.1237 0.0000e+00
   1442.359    160.000     4.0857  30.944343    32.9188    26.1223 0.0000e+00
   1445.700    159.000     4.0875  30.944345    32.9175    26.1211 0.0000e+00
   1448.925    158.000     4.0890  30.944480    32.9167    26.1202 0.0000e+00
   1452.298    157.000     4.0915  30.944524    32.9148    26.1185 0.0000e+00
   1455.684    156.000     4.0936  30.943724    32.9122    26.1162 0.0000e+00
   1458.745    155.000     4.0988  30.943222    32.9069    26.1115 0.0000e+00
   1462.096    154.000     4.1051  30.944841    32.9031    26.1078 0.0000e+00
   1465.270    153.000     4.1081  30.945381    32.9012    26.1060 0.0000e+00
   1468.448    152.000     4.1153  30.948081    32.8977    26.1025 0.0000e+00
   1471.704    151.000     4.1188  30.948802    32.8955    26.1004 0.0000e+00
   1474.742    150.000     4.1204  30.947793    32.8933    26.0985 0.0000e+00
   1478.076    149.000     4.1222  30.944272    32.8878    26.0940 0.0000e+00
   1481.216    148.000     4.1220  30.941400    32.8852    26.0919 0.0000e+00
   1484.631    147.000     4.1246  30.940687    32.8823    26.0893 0.0000e+00
   1487.701    146.000     4.1294  30.941808    32.8793    26.0865 0.0000e+00
   1491.113    145.000     4.1269  30.936173    32.8757    26.0838 0.0000e+00
   1494.016    144.000     4.1216  30.928033    32.8719    26.0814 0.0000e+00
   1497.228    143.000     4.1211  30.924333    32.8686    26.0788 0.0000e+00
   1500.345    142.000     4.1224  30.921838    32.8649    26.0757 0.0000e+00
   1503.593    141.000     4.1234  30.920741    32.8631    26.0742 0.0000e+00
   1506.992    140.000     4.1258  30.919410    32.8596    26.0712 0.0000e+00
   1510.742    139.000     4.1304  30.919210    32.8553    26.0673 0.0000e+00
   1514.841    138.000     4.1341  30.919029    32.8519    26.0642 0.0000e+00
   1519.193    137.000     4.1385  30.919920    32.8491    26.0615 0.0000e+00
   1523.135    136.000     4.1395  30.919640    32.8483    26.0608 0.0000e+00
   1526.294    135.000     4.1397  30.918788    32.8476    26.0602 0.0000e+00
   1529.638    134.000     4.1435  30.919163    32.8447    26.0576 0.0000e+00
   1533.199    133.000     4.1523  30.923549    32.8416    26.0542 0.0000e+00
   1537.079    132.000     4.1811  30.946774    32.8407    26.0505 0.0000e+00
   1542.481    131.000     4.2586  31.017722    32.8471    26.0477 0.0000e+00
   1547.097    130.000     4.2971  31.053066    32.8506    26.0466 0.0000e+00
   1551.854    129.000     4.3385  31.090764    32.8540    26.0450 0.0000e+00
   1555.858    128.000     4.3506  31.098875    32.8519    26.0421 0.0000e+00
   1560.348    127.000     4.3497  31.094074    32.8477    26.0389 0.0000e+00
   1564.697    126.000     4.3514  31.093701    32.8461    26.0374 0.0000e+00
   1569.204    125.000     4.3534  31.093718    32.8446    26.0360 0.0000e+00
   1573.740    124.000     4.3535  31.090473    32.8412    26.0334 0.0000e+00
   1578.176    123.000     4.3534  31.088751    32.8398    26.0322 0.0000e+00
   1582.821    122.000     4.3458  31.078423    32.8358    26.0299 0.0000e+00
   1587.603    121.000     4.3541  31.082341    32.8327    26.0265 0.0000e+00
   1592.129    120.000     4.3499  31.074770    32.8285    26.0236 0.0000e+00
   1597.175    119.000     4.3476  31.070433    32.8262    26.0221 0.0000e+00
   1602.054    118.000     4.3472  31.067705    32.8240    26.0203 0.0000e+00
   1606.998    117.000     4.3490  31.068031    32.8231    26.0194 0.0000e+00
   1611.941    116.000     4.3492  31.066780    32.8219    26.0185 0.0000e+00
   1617.022    115.000     4.3512  31.066912    32.8206    26.0172 0.0000e+00
   1622.332    114.000     4.3514  31.064692    32.8183    26.0154 0.0000e+00
   1627.820    113.000     4.3534  31.065202    32.8174    26.0145 0.0000e+00
   1633.243    112.000     4.3520  31.060971    32.8144    26.0122 0.0000e+00
   1638.959    111.000     4.3476  31.053777    32.8109    26.0098 0.0000e+00
   1644.381    110.000     4.3415  31.042228    32.8039    26.0050 0.0000e+00
   1649.997    109.000     4.3391  31.036522    32.8002    26.0022 0.0000e+00
   1655.493    108.000     4.3385  31.034731    32.7992    26.0015 0.0000e+00
   1660.932    107.000     4.3366  31.031522    32.7978    26.0006 0.0000e+00
   1666.883    106.000     4.3346  31.027951    32.7962    25.9995 0.0000e+00
   1672.140    105.000     4.3363  31.026122    32.7928    25.9967 0.0000e+00
   1677.528    104.000     4.3393  31.025676    32.7898    25.9940 0.0000e+00
   1682.565    103.000     4.3370  31.018622    32.7844    25.9899 0.0000e+00
   1687.585    102.000     4.3183  30.993664    32.7743    25.9838 0.0000e+00
   1692.296    101.000     4.3100  30.982219    32.7697    25.9810 0.0000e+00
   1696.716    100.000     4.3066  30.976796    32.7672    25.9794 0.0000e+00
   1701.255     99.000     4.3049  30.973251    32.7653    25.9780 0.0000e+00
   1705.176     98.000     4.2848  30.949847    32.7584    25.9746 0.0000e+00
   1709.717     97.000     4.2648  30.928940    32.7543    25.9734 0.0000e+00
   1713.679     96.000     4.2478  30.909699    32.7492    25.9711 0.0000e+00
   1717.810     95.000     4.2413  30.901202    32.7462    25.9694 0.0000e+00
   1721.936     94.000     4.2397  30.896857    32.7432    25.9672 0.0000e+00
   1725.919     93.000     4.2405  30.892466    32.7378    25.9628 0.0000e+00
   1729.624     92.000     4.2483  30.897140    32.7360    25.9606 0.0000e+00
   1733.411     91.000     4.2810  30.920950    32.7319    25.9540 0.0000e+00
   1736.958     90.000     4.2862  30.923174    32.7299    25.9518 0.0000e+00
   1740.210     89.000     4.2958  30.929533    32.7283    25.9496 0.0000e+00
   1743.166     88.000     4.3120  30.943124    32.7286    25.9482 0.0000e+00
   1746.408     87.000     4.3394  30.967479    32.7304    25.9468 0.0000e+00
   1749.996     86.000     4.4105  31.032263    32.7360    25.9439 0.0000e+00
   1753.194     85.000     4.4922  31.108129    32.7440    25.9417 0.0000e+00
   1757.678     84.000     4.5151  31.129307    32.7465    25.9413 0.0000e+00
   1761.449     83.000     4.5166  31.129609    32.7459    25.9406 0.0000e+00
   1764.785     82.000     4.5039  31.115345    32.7423    25.9392 0.0000e+00
   1767.778     81.000     4.4874  31.097196    32.7381    25.9375 0.0000e+00
   1770.863     80.000     4.4785  31.087333    32.7359    25.9367 0.0000e+00
   1774.104     79.000     4.4676  31.075221    32.7331    25.9356 0.0000e+00
   1777.193     78.000     4.4569  31.063063    32.7300    25.9343 0.0000e+00
   1781.126     77.000     4.4443  31.049389    32.7271    25.9333 0.0000e+00
   1784.839     76.000     4.4253  31.029004    32.7227    25.9318 0.0000e+00
   1788.220     75.000     4.3921  30.993510    32.7147    25.9289 0.0000e+00
   1791.330     74.000     4.3750  30.975035    32.7106    25.9274 0.0000e+00
   1794.599     73.000     4.3672  30.966056    32.7083    25.9264 0.0000e+00
   1797.726     72.000     4.3577  30.955294    32.7057    25.9253 0.0000e+00
   1800.792     71.000     4.3599  30.954819    32.7034    25.9233 0.0000e+00
   1804.175     70.000     4.3755  30.967017    32.7027    25.9211 0.0000e+00
   1807.082     69.000     4.3828  30.971786    32.7016    25.9194 0.0000e+00
   1810.487     68.000     4.4091  30.994888    32.7030    25.9178 0.0000e+00
   1813.475     67.000     4.3692  30.954418    32.6958    25.9162 0.0000e+00
   1817.215     66.000     4.3252  30.910714    32.6889    25.9153 0.0000e+00
   1820.686     65.000     4.3244  30.908066    32.6871    25.9139 0.0000e+00
   1824.866     64.000     4.3271  30.906208    32.6827    25.9102 0.0000e+00
   1828.952     63.000     4.3517  30.925966    32.6820    25.9070 0.0000e+00
   1832.862     62.000     4.3457  30.917953    32.6790    25.9054 0.0000e+00
   1836.471     61.000     4.3389  30.909274    32.6762    25.9038 0.0000e+00
   1840.273     60.000     4.3247  30.892580    32.6712    25.9013 0.0000e+00
   1844.122     59.000     4.3148  30.879135    32.6658    25.8980 0.0000e+00
   1847.642     58.000     4.3337  30.892880    32.6637    25.8944 0.0000e+00
   1851.910     57.000     4.3441  30.898667    32.6606    25.8909 0.0000e+00
   1855.652     56.000     4.3596  30.910137    32.6592    25.8882 0.0000e+00
   1859.782     55.000     4.3962  30.939876    32.6582    25.8836 0.0000e+00
   1863.545     54.000     4.4391  30.976874    32.6594    25.8801 0.0000e+00
   1868.006     53.000     4.4721  31.005966    32.6612    25.8781 0.0000e+00
   1871.626     52.000     4.4898  31.020057    32.6606    25.8758 0.0000e+00
   1876.059     51.000     4.4775  31.006192    32.6572    25.8743 0.0000e+00
   1880.309     50.000     4.4680  30.996304    32.6555    25.8740 0.0000e+00
   1884.231     49.000     4.4557  30.983458    32.6532    25.8735 0.0000e+00
   1888.187     48.000     4.4392  30.966197    32.6499    25.8726 0.0000e+00
   1892.257     47.000     4.4190  30.945108    32.6458    25.8714 0.0000e+00
   1895.876     46.000     4.3886  30.911949    32.6377    25.8681 0.0000e+00
   1900.326     45.000     4.3615  30.881375    32.6293    25.8643 0.0000e+00
   1904.225     44.000     4.3637  30.879673    32.6257    25.8611 0.0000e+00
   1908.652     43.000     4.4185  30.927757    32.6281    25.8574 0.0000e+00
   1913.681     42.000     4.4742  30.977984    32.6321    25.8548 0.0000e+00
   1917.931     41.000     4.5408  31.039830    32.6389    25.8532 0.0000e+00
   1922.865     40.000     4.6060  31.099143    32.6440    25.8504 0.0000e+00
   1927.431     39.000     4.6111  31.100312    32.6408    25.8473 0.0000e+00
   1932.079     38.000     4.5783  31.062053    32.6292    25.8416 0.0000e+00
   1936.816     37.000     4.5651  31.041351    32.6187    25.8346 0.0000e+00
   1941.278     36.000     4.6172  31.081111    32.6140    25.8254 0.0000e+00
   1945.509     35.000     4.6258  31.086879    32.6128    25.8235 0.0000e+00
   1949.749     34.000     4.6258  31.085257    32.6114    25.8224 0.0000e+00
   1953.838     33.000     4.6218  31.080213    32.6100    25.8217 0.0000e+00
   1958.096     32.000     4.6184  31.075837    32.6088    25.8211 0.0000e+00
   1962.356     31.000     4.6151  31.071166    32.6071    25.8201 0.0000e+00
   1966.798     30.000     4.6147  31.068952    32.6054    25.8188 0.0000e+00
   1971.304     29.000     4.6163  31.069163    32.6046    25.8180 0.0000e+00
   1975.524     28.000     4.6246  31.073478    32.6019    25.8150 0.0000e+00
   1980.057     27.000     4.6791  31.117032    32.5993    25.8072 0.0000e+00
   1983.983     26.000     4.7261  31.153009    32.5953    25.7989 0.0000e+00
   1988.105     25.000     4.7513  31.170560    32.5913    25.7931 0.0000e+00
   1992.189     24.000     4.7174  31.121205    32.5680    25.7782 0.0000e+00
   1996.257     23.000     4.6476  31.041780    32.5451    25.7675 0.0000e+00
   2000.083     22.000     4.7128  31.098289    32.5470    25.7621 0.0000e+00
   2003.966     21.000     4.8229  31.195609    32.5520    25.7542 0.0000e+00
   2007.514     20.000     4.8121  31.179961    32.5450    25.7498 0.0000e+00
   2011.131     19.000     4.8023  31.168802    32.5422    25.7487 0.0000e+00
   2014.486     18.000     4.8140  31.173926    32.5372    25.7434 0.0000e+00
   2018.223     17.000     4.9651  31.298542    32.5334    25.7240 0.0000e+00
   2021.539     16.000     5.1928  31.463848    32.5014    25.6733 0.0000e+00
   2025.246     15.000     5.2407  31.494783    32.4907    25.6594 0.0000e+00
   2028.563     14.000     5.2631  31.511899    32.4890    25.6555 0.0000e+00
   2032.015     13.000     5.3344  31.569948    32.4864    25.6454 0.0000e+00
   2035.614     12.000     5.4425  31.660168    32.4848    25.6316 0.0000e+00
   2039.118     11.000     5.5420  31.741560    32.4813    25.6174 0.0000e+00
   2042.828     10.000     5.6372  31.821018    32.4797    25.6050 0.0000e+00
   2046.693      9.000     5.6566  31.837693    32.4804    25.6032 0.0000e+00
   2050.620      8.000     5.6869  31.863690    32.4810    25.6001 0.0000e+00
   2054.699      7.000     5.7242  31.894912    32.4807    25.5955 0.0000e+00
   2058.966      6.000     5.8359  31.984439    32.4745    25.5772 0.0000e+00
   2063.205      5.000     5.9395  32.052211    32.4515    25.5466 0.0000e+00
   2067.797      4.000     6.1803  32.250356    32.4429    25.5103 0.0000e+00
   2072.585      3.000     6.6544  32.659527    32.4453    25.4522 0.0000e+00
   2077.986      2.000     6.7931  32.779491    32.4463    25.4349 0.0000e+00
   2083.272      1.000     6.7968  32.589410    32.2348    25.2678 0.0000e+00
