* Sea-Bird SBE 19plus Data File:
* FileName = C:\Sea-Bird Data\2014\DY1405\Casts\BON047.hex
* Software Version Seasave V 7.22.3
* Temperature SN = 4530
* Conductivity SN = 4530
* System UpLoad Time = May 16 2014 08:13:56
* Real-Time Sample Interval = 0.2500 seconds
* System UTC = May 16 2014 08:13:56
# nquan = 7                                 
# nvalues = 609                         
# units = specified
# name 0 = timeS: Time, Elapsed [seconds]
# name 1 = prdM: Pressure, Strain Gauge [db]
# name 2 = tv290C: Temperature [ITS-90, deg C]
# name 3 = c0mS/cm: Conductivity [mS/cm]
# name 4 = sal00: Salinity, Practical [PSU]
# name 5 = sigma-t00: Density [sigma-t, Kg/m^3 ]
# name 6 = flag: flag
# span 0 =    562.720,   2360.662       
# span 1 =      1.000,    305.000       
# span 2 =     3.5690,     6.6865       
# span 3 =  27.899866,  32.869729       
# span 4 =    27.5407,    33.6907       
# span 5 =    21.6299,    26.7564       
# span 6 = 0.0000e+00, 0.0000e+00       
# interval = decibars: 1                
# start_time = May 16 2014 08:13:56 [System UTC, header]
# bad_flag = -9.990e-29
# <Sensors count="3" >
#   <sensor Channel="1" >
#     <!-- Count, Temperature -->
#     <TemperatureSensor SensorID="58" >
#       <SerialNumber>4530</SerialNumber>
#       <CalibrationDate>03-Dec-13</CalibrationDate>
#       <A0>1.22471000e-003</A0>
#       <A1>2.66234600e-004</A1>
#       <A2>-3.25282000e-007</A2>
#       <A3>1.63905300e-007</A3>
#       <Slope>1.00000000</Slope>
#       <Offset>0.0000</Offset>
#     </TemperatureSensor>
#   </sensor>
#   <sensor Channel="2" >
#     <!-- Frequency 0, Conductivity -->
#     <ConductivitySensor SensorID="3" >
#       <SerialNumber>4530</SerialNumber>
#       <CalibrationDate>03-Dec-13</CalibrationDate>
#       <UseG_J>1</UseG_J>
#       <!-- Cell const and series R are applicable only for wide range sensors. -->
#       <SeriesR>0.0000</SeriesR>
#       <CellConst>2000.0000</CellConst>
#       <ConductivityType>0</ConductivityType>
#       <Coefficients equation="0" >
#         <A>0.00000000e+000</A>
#         <B>0.00000000e+000</B>
#         <C>0.00000000e+000</C>
#         <D>0.00000000e+000</D>
#         <M>0.0</M>
#         <CPcor>-9.57000000e-008</CPcor>
#       </Coefficients>
#       <Coefficients equation="1" >
#         <G>-9.84131900e-001</G>
#         <H>1.41458700e-001</H>
#         <I>-1.92288200e-004</I>
#         <J>3.59848200e-005</J>
#         <CPcor>-9.57000000e-008</CPcor>
#         <CTcor>3.2500e-006</CTcor>
#         <!-- WBOTC not applicable unless ConductivityType = 1. -->
#         <WBOTC>0.00000000e+000</WBOTC>
#       </Coefficients>
#       <Slope>1.00000000</Slope>
#       <Offset>0.00000</Offset>
#     </ConductivitySensor>
#   </sensor>
#   <sensor Channel="3" >
#     <!-- Count, Pressure, Strain Gauge -->
#     <PressureSensor SensorID="46" >
#       <SerialNumber>4530</SerialNumber>
#       <CalibrationDate>02-Dec-13</CalibrationDate>
#       <PA0>-3.35712300e-001</PA0>
#       <PA1>1.56795400e-002</PA1>
#       <PA2>-6.60390500e-010</PA2>
#       <PTEMPA0>-6.74611800e+001</PTEMPA0>
#       <PTEMPA1>5.06446900e+001</PTEMPA1>
#       <PTEMPA2>-4.65162800e-001</PTEMPA2>
#       <PTCA0>5.24503600e+005</PTCA0>
#       <PTCA1>-3.17070100e-002</PTCA1>
#       <PTCA2>-4.70494400e-002</PTCA2>
#       <PTCB0>2.49031200e+001</PTCB0>
#       <PTCB1>-5.75000000e-004</PTCB1>
#       <PTCB2>0.00000000e+000</PTCB2>
#       <Offset>0.000000</Offset>
#     </PressureSensor>
#   </sensor>
# </Sensors>
# datcnv_date = May 17 2014 01:07:35, 7.22.2 [datcnv_vars = 4]
# datcnv_in = c:\data\seacat\current\bon047.hex c:\data\seacat\current\bon047.XMLCON
# datcnv_skipover = 0
# filter_date = May 17 2014 01:07:35, 7.22.2
# filter_in = c:\data\seacat\current\bon047.cnv
# filter_low_pass_tc_A = 0.500
# filter_low_pass_tc_B = 2.000
# filter_low_pass_A_vars = prdM tv290C c0mS/cm
# filter_low_pass_B_vars =
# alignctd_date = May 17 2014 01:07:35, 7.22.2
# alignctd_in = c:\data\seacat\current\bon047.cnv
# alignctd_adv = tv290C 0.500                                                                                                                                                                                                        
# wildedit_date = May 17 2014 01:07:35, 7.22.2
# wildedit_in = c:\data\seacat\current\bon047.cnv
# wildedit_pass1_nstd = 2.0
# wildedit_pass2_nstd = 15.0
# wildedit_pass2_mindelta = 1.000e-002
# wildedit_npoint = 100
# wildedit_vars = prdM tv290C c0mS/cm
# wildedit_excl_bad_scans = yes
# binavg_date = May 17 2014 01:07:36, 7.22.2
# binavg_in = c:\data\seacat\current\bon047.cnv
# binavg_bintype = decibars
# binavg_binsize = 1
# binavg_excl_bad_scans = yes
# binavg_skipover = 0
# binavg_surface_bin = no, min = 0.000, max = 0.500, value = 0.000
# Derive_date = May 17 2014 01:07:36, 7.22.2 [derive_vars = 2]
# Derive_in = c:\data\seacat\current\bon047.cnv c:\data\seacat\current\BON047.XMLcon
# file_type = ascii
*END*
    562.720      1.000     6.3099  27.899866    27.5407    21.6299 0.0000e+00
    565.761      2.000     6.5290  32.331767    32.2031    25.2774 0.0000e+00
    570.836      3.000     6.5212  32.404376    32.2901    25.3470 0.0000e+00
    574.889      4.000     6.5013  32.303395    32.1970    25.2760 0.0000e+00
    576.641      5.000     6.4669  32.262061    32.1833    25.2696 0.0000e+00
    578.484      6.000     6.4391  32.240461    32.1852    25.2746 0.0000e+00
    580.291      7.000     6.4474  32.287638    32.2290    25.3081 0.0000e+00
    582.147      8.000     6.4173  32.227343    32.1903    25.2814 0.0000e+00
    584.106      9.000     6.3379  32.250979    32.2911    25.3709 0.0000e+00
    585.991     10.000     6.2890  32.249025    32.3349    25.4116 0.0000e+00
    587.967     11.000     6.2606  32.205179    32.3127    25.3976 0.0000e+00
    590.089     12.000     6.2384  32.177327    32.3024    25.3922 0.0000e+00
    592.203     13.000     6.1779  32.173119    32.3548    25.4410 0.0000e+00
    594.328     14.000     6.0857  32.180738    32.4508    25.5282 0.0000e+00
    596.330     15.000     5.9103  32.239643    32.6851    25.7347 0.0000e+00
    598.335     16.000     5.7884  32.235924    32.7986    25.8391 0.0000e+00
    600.383     17.000     5.6429  32.171656    32.8673    25.9108 0.0000e+00
    602.388     18.000     5.0480  31.534247    32.7227    25.8647 0.0000e+00
    604.315     19.000     4.8475  31.322115    32.6749    25.8490 0.0000e+00
    606.076     20.000     4.8324  31.308364    32.6734    25.8494 0.0000e+00
    607.893     21.000     4.8194  31.296253    32.6717    25.8495 0.0000e+00
    609.854     22.000     4.8138  31.290773    32.6704    25.8490 0.0000e+00
    611.777     23.000     4.8091  31.285309    32.6682    25.8478 0.0000e+00
    613.619     24.000     4.8020  31.280798    32.6694    25.8496 0.0000e+00
    615.488     25.000     4.8005  31.281454    32.6712    25.8511 0.0000e+00
    617.367     26.000     4.8111  31.294870    32.6757    25.8536 0.0000e+00
    619.210     27.000     4.8101  31.297297    32.6790    25.8563 0.0000e+00
    621.005     28.000     4.7984  31.288566    32.6799    25.8583 0.0000e+00
    622.852     29.000     4.7855  31.278110    32.6800    25.8598 0.0000e+00
    624.764     30.000     4.7663  31.262885    32.6808    25.8625 0.0000e+00
    626.648     31.000     4.7489  31.250650    32.6833    25.8663 0.0000e+00
    628.556     32.000     4.7304  31.237084    32.6853    25.8699 0.0000e+00
    630.398     33.000     4.7141  31.225165    32.6871    25.8730 0.0000e+00
    632.265     34.000     4.7031  31.217940    32.6891    25.8758 0.0000e+00
    634.150     35.000     4.6962  31.213544    32.6903    25.8775 0.0000e+00
    636.093     36.000     4.6894  31.209076    32.6913    25.8790 0.0000e+00
    638.039     37.000     4.6784  31.201617    32.6930    25.8815 0.0000e+00
    639.899     38.000     4.6688  31.196020    32.6955    25.8845 0.0000e+00
    641.838     39.000     4.6562  31.189457    32.6998    25.8893 0.0000e+00
    643.751     40.000     4.6361  31.178285    32.7062    25.8965 0.0000e+00
    645.747     41.000     4.6187  31.168217    32.7112    25.9023 0.0000e+00
    647.653     42.000     4.6028  31.157329    32.7137    25.9060 0.0000e+00
    649.585     43.000     4.5850  31.143892    32.7152    25.9091 0.0000e+00
    651.537     44.000     4.5768  31.138041    32.7160    25.9106 0.0000e+00
    653.504     45.000     4.5709  31.134860    32.7176    25.9125 0.0000e+00
    655.424     46.000     4.5645  31.131599    32.7196    25.9148 0.0000e+00
    657.413     47.000     4.5493  31.122834    32.7240    25.9198 0.0000e+00
    659.380     48.000     4.5200  31.103160    32.7296    25.9274 0.0000e+00
    661.361     49.000     4.4960  31.088639    32.7359    25.9349 0.0000e+00
    663.332     50.000     4.4599  31.067293    32.7463    25.9470 0.0000e+00
    665.272     51.000     4.3688  31.012963    32.7729    25.9775 0.0000e+00
    667.328     52.000     4.3002  30.972799    32.7936    26.0010 0.0000e+00
    669.377     53.000     4.2634  30.950851    32.8041    26.0131 0.0000e+00
    671.422     54.000     4.2489  30.942121    32.8078    26.0175 0.0000e+00
    673.408     55.000     4.2210  30.925256    32.8153    26.0263 0.0000e+00
    675.469     56.000     4.1940  30.909216    32.8229    26.0351 0.0000e+00
    677.793     57.000     4.1736  30.897100    32.8285    26.0416 0.0000e+00
    679.894     58.000     4.1613  30.890025    32.8320    26.0456 0.0000e+00
    681.924     59.000     4.1514  30.884233    32.8345    26.0487 0.0000e+00
    684.169     60.000     4.1385  30.877225    32.8387    26.0533 0.0000e+00
    686.477     61.000     4.0992  30.854161    32.8503    26.0665 0.0000e+00
    688.711     62.000     4.0775  30.841873    32.8571    26.0740 0.0000e+00
    690.974     63.000     4.0204  30.810654    32.8770    26.0955 0.0000e+00
    693.165     64.000     3.9413  30.767873    32.9053    26.1259 0.0000e+00
    695.371     65.000     3.9096  30.751634    32.9175    26.1387 0.0000e+00
    697.730     66.000     3.8788  30.736437    32.9300    26.1516 0.0000e+00
    700.070     67.000     3.8503  30.721938    32.9410    26.1632 0.0000e+00
    702.240     68.000     3.8413  30.717185    32.9439    26.1664 0.0000e+00
    704.526     69.000     3.8351  30.714233    32.9461    26.1687 0.0000e+00
    707.012     70.000     3.8296  30.712211    32.9487    26.1714 0.0000e+00
    709.298     71.000     3.8275  30.712070    32.9502    26.1727 0.0000e+00
    711.687     72.000     3.8251  30.711890    32.9518    26.1743 0.0000e+00
    714.156     73.000     3.8239  30.712076    32.9528    26.1751 0.0000e+00
    716.618     74.000     3.8178  30.710433    32.9564    26.1786 0.0000e+00
    719.135     75.000     3.7936  30.700888    32.9690    26.1910 0.0000e+00
    721.755     76.000     3.7832  30.697554    32.9750    26.1968 0.0000e+00
    724.173     77.000     3.7775  30.696291    32.9788    26.2003 0.0000e+00
    726.505     78.000     3.7724  30.695260    32.9822    26.2035 0.0000e+00
    728.974     79.000     3.7666  30.693998    32.9860    26.2071 0.0000e+00
    731.439     80.000     3.7622  30.693212    32.9890    26.2099 0.0000e+00
    733.818     81.000     3.7573  30.692657    32.9928    26.2134 0.0000e+00
    736.079     82.000     3.7526  30.692836    32.9972    26.2174 0.0000e+00
    738.315     83.000     3.7503  30.693115    32.9993    26.2193 0.0000e+00
    740.723     84.000     3.7487  30.693493    33.0009    26.2207 0.0000e+00
    742.960     85.000     3.7457  30.694099    33.0041    26.2235 0.0000e+00
    745.162     86.000     3.7426  30.694540    33.0072    26.2263 0.0000e+00
    747.298     87.000     3.7387  30.694932    33.0111    26.2298 0.0000e+00
    749.424     88.000     3.7370  30.695435    33.0129    26.2314 0.0000e+00
    751.715     89.000     3.7353  30.696204    33.0150    26.2332 0.0000e+00
    753.871     90.000     3.7328  30.697039    33.0180    26.2359 0.0000e+00
    756.030     91.000     3.7312  30.697462    33.0196    26.2373 0.0000e+00
    758.175     92.000     3.7291  30.697726    33.0215    26.2390 0.0000e+00
    760.282     93.000     3.7270  30.699461    33.0252    26.2421 0.0000e+00
    762.469     94.000     3.7242  30.702086    33.0306    26.2467 0.0000e+00
    764.521     95.000     3.7205  30.701819    33.0335    26.2494 0.0000e+00
    766.514     96.000     3.7172  30.700956    33.0353    26.2511 0.0000e+00
    768.586     97.000     3.7154  30.701129    33.0368    26.2525 0.0000e+00
    770.639     98.000     3.7133  30.701469    33.0388    26.2543 0.0000e+00
    772.613     99.000     3.7085  30.702663    33.0446    26.2593 0.0000e+00
    774.480    100.000     3.7030  30.704281    33.0516    26.2654 0.0000e+00
    776.497    101.000     3.6999  30.705398    33.0555    26.2689 0.0000e+00
    778.433    102.000     3.6978  30.706616    33.0586    26.2715 0.0000e+00
    780.395    103.000     3.6945  30.707525    33.0625    26.2749 0.0000e+00
    782.225    104.000     3.6889  30.706622    33.0665    26.2787 0.0000e+00
    784.071    105.000     3.6827  30.704952    33.0703    26.2823 0.0000e+00
    785.907    106.000     3.6759  30.702134    33.0733    26.2854 0.0000e+00
    787.781    107.000     3.6726  30.701069    33.0749    26.2869 0.0000e+00
    789.645    108.000     3.6709  30.701403    33.0765    26.2883 0.0000e+00
    791.386    109.000     3.6687  30.701319    33.0781    26.2898 0.0000e+00
    793.165    110.000     3.6648  30.700447    33.0805    26.2921 0.0000e+00
    794.871    111.000     3.6593  30.699578    33.0845    26.2958 0.0000e+00
    796.609    112.000     3.6521  30.697126    33.0884    26.2996 0.0000e+00
    798.398    113.000     3.6445  30.693748    33.0915    26.3028 0.0000e+00
    800.241    114.000     3.6401  30.692057    33.0934    26.3048 0.0000e+00
    802.114    115.000     3.6368  30.694744    33.0995    26.3099 0.0000e+00
    803.980    116.000     3.6342  30.698574    33.1062    26.3155 0.0000e+00
    805.968    117.000     3.6296  30.698161    33.1098    26.3188 0.0000e+00
    807.904    118.000     3.6252  30.696572    33.1119    26.3209 0.0000e+00
    809.781    119.000     3.6168  30.691132    33.1134    26.3229 0.0000e+00
    811.716    120.000     3.6095  30.686788    33.1151    26.3249 0.0000e+00
    813.558    121.000     3.6048  30.683879    33.1159    26.3260 0.0000e+00
    815.400    122.000     3.6006  30.681339    33.1166    26.3270 0.0000e+00
    817.224    123.000     3.5979  30.680152    33.1174    26.3279 0.0000e+00
    819.038    124.000     3.5956  30.679657    33.1186    26.3291 0.0000e+00
    820.919    125.000     3.5926  30.679691    33.1212    26.3314 0.0000e+00
    822.835    126.000     3.5916  30.681231    33.1235    26.3333 0.0000e+00
    824.678    127.000     3.5972  30.690527    33.1284    26.3367 0.0000e+00
    826.438    128.000     3.6052  30.701825    33.1332    26.3398 0.0000e+00
    828.193    129.000     3.6096  30.708053    33.1356    26.3413 0.0000e+00
    830.024    130.000     3.6104  30.711558    33.1385    26.3435 0.0000e+00
    831.836    131.000     3.6098  30.714179    33.1417    26.3461 0.0000e+00
    833.667    132.000     3.6073  30.715066    33.1448    26.3488 0.0000e+00
    835.426    133.000     3.6040  30.715455    33.1481    26.3517 0.0000e+00
    837.172    134.000     3.6033  30.717747    33.1510    26.3541 0.0000e+00
    838.896    135.000     3.6027  30.718779    33.1523    26.3552 0.0000e+00
    840.611    136.000     3.6019  30.719922    33.1540    26.3566 0.0000e+00
    842.331    137.000     3.6019  30.722588    33.1566    26.3587 0.0000e+00
    844.171    138.000     3.6014  30.725541    33.1601    26.3616 0.0000e+00
    846.022    139.000     3.6009  30.727721    33.1627    26.3637 0.0000e+00
    847.883    140.000     3.6015  30.730146    33.1645    26.3650 0.0000e+00
    849.865    141.000     3.6055  30.735480    33.1662    26.3660 0.0000e+00
    851.922    142.000     3.6074  30.742942    33.1727    26.3710 0.0000e+00
    853.892    143.000     3.5888  30.728545    33.1739    26.3737 0.0000e+00
    855.922    144.000     3.6045  30.750120    33.1831    26.3796 0.0000e+00
    858.040    145.000     3.6206  30.769373    33.1892    26.3829 0.0000e+00
    859.863    146.000     3.6203  30.772239    33.1924    26.3855 0.0000e+00
    861.745    147.000     3.6158  30.771085    33.1951    26.3880 0.0000e+00
    863.679    148.000     3.6175  30.776432    33.1992    26.3911 0.0000e+00
    865.458    149.000     3.6245  30.786903    33.2040    26.3943 0.0000e+00
    867.315    150.000     3.6263  30.793121    33.2091    26.3982 0.0000e+00
    869.263    151.000     3.6208  30.792128    33.2130    26.4018 0.0000e+00
    871.095    152.000     3.6278  30.802167    33.2173    26.4046 0.0000e+00
    872.877    153.000     3.6325  30.808060    33.2190    26.4055 0.0000e+00
    874.696    154.000     3.6365  30.813854    33.2213    26.4070 0.0000e+00
    876.634    155.000     3.6505  30.830081    33.2259    26.4092 0.0000e+00
    878.579    156.000     3.6617  30.843123    33.2295    26.4110 0.0000e+00
    880.386    157.000     3.6672  30.850256    33.2319    26.4124 0.0000e+00
    882.291    158.000     3.6771  30.863767    33.2374    26.4158 0.0000e+00
    884.326    159.000     3.6871  30.877110    33.2426    26.4190 0.0000e+00
    886.244    160.000     3.6931  30.886155    33.2467    26.4217 0.0000e+00
    888.111    161.000     3.6961  30.891971    33.2500    26.4241 0.0000e+00
    890.135    162.000     3.6967  30.893824    33.2511    26.4249 0.0000e+00
    892.093    163.000     3.7002  30.900598    33.2551    26.4277 0.0000e+00
    894.049    164.000     3.7063  30.910877    33.2606    26.4315 0.0000e+00
    895.959    165.000     3.7098  30.916200    33.2628    26.4329 0.0000e+00
    897.872    166.000     3.7141  30.923001    33.2660    26.4351 0.0000e+00
    899.876    167.000     3.7221  30.935481    33.2722    26.4392 0.0000e+00
    901.808    168.000     3.7362  30.956349    33.2821    26.4458 0.0000e+00
    903.715    169.000     3.7508  30.976405    33.2906    26.4511 0.0000e+00
    905.654    170.000     3.7613  30.994915    33.3014    26.4586 0.0000e+00
    907.663    171.000     3.7667  31.006445    33.3091    26.4642 0.0000e+00
    909.571    172.000     3.7688  31.014647    33.3162    26.4697 0.0000e+00
    911.532    173.000     3.7686  31.020941    33.3233    26.4754 0.0000e+00
    913.593    174.000     3.7717  31.027981    33.3280    26.4788 0.0000e+00
    915.594    175.000     3.7778  31.039501    33.3350    26.4837 0.0000e+00
    917.470    176.000     3.7836  31.049682    33.3406    26.4877 0.0000e+00
    919.448    177.000     3.7913  31.064045    33.3493    26.4938 0.0000e+00
    921.481    178.000     3.7975  31.077120    33.3580    26.5001 0.0000e+00
    923.491    179.000     3.8046  31.091773    33.3676    26.5071 0.0000e+00
    925.498    180.000     3.8119  31.105718    33.3762    26.5132 0.0000e+00
    927.491    181.000     3.8165  31.114778    33.3818    26.5172 0.0000e+00
    929.566    182.000     3.8178  31.117637    33.3833    26.5183 0.0000e+00
    931.577    183.000     3.8185  31.119285    33.3840    26.5188 0.0000e+00
    933.461    184.000     3.8197  31.122157    33.3857    26.5200 0.0000e+00
    935.387    185.000     3.8230  31.129915    33.3910    26.5239 0.0000e+00
    937.472    186.000     3.8268  31.139249    33.3977    26.5289 0.0000e+00
    939.519    187.000     3.8286  31.144184    33.4012    26.5315 0.0000e+00
    941.397    188.000     3.8308  31.149433    33.4046    26.5340 0.0000e+00
    943.303    189.000     3.8344  31.157492    33.4100    26.5379 0.0000e+00
    945.350    190.000     3.8362  31.161516    33.4124    26.5397 0.0000e+00
    947.429    191.000     3.8382  31.165971    33.4151    26.5416 0.0000e+00
    949.354    192.000     3.8393  31.168683    33.4167    26.5428 0.0000e+00
    951.228    193.000     3.8398  31.170141    33.4174    26.5433 0.0000e+00
    953.083    194.000     3.8402  31.171316    33.4179    26.5436 0.0000e+00
    954.866    195.000     3.8404  31.172102    33.4181    26.5437 0.0000e+00
    956.695    196.000     3.8410  31.173751    33.4189    26.5443 0.0000e+00
    958.472    197.000     3.8427  31.177830    33.4215    26.5462 0.0000e+00
    960.295    198.000     3.8452  31.183507    33.4251    26.5489 0.0000e+00
    962.049    199.000     3.8460  31.185507    33.4262    26.5496 0.0000e+00
    963.767    200.000     3.8470  31.187575    33.4271    26.5502 0.0000e+00
    965.601    201.000     3.8489  31.192146    33.4300    26.5524 0.0000e+00
    967.494    202.000     3.8512  31.197241    33.4332    26.5547 0.0000e+00
    969.338    203.000     3.8558  31.207363    33.4400    26.5597 0.0000e+00
    971.234    204.000     3.8611  31.219428    33.4484    26.5658 0.0000e+00
    973.264    205.000     3.8650  31.229175    33.4554    26.5710 0.0000e+00
    975.304    206.000     3.8679  31.237056    33.4613    26.5754 0.0000e+00
    977.238    207.000     3.8692  31.241138    33.4643    26.5776 0.0000e+00
    979.268    208.000     3.8701  31.245003    33.4674    26.5801 0.0000e+00
    981.359    209.000     3.8705  31.248962    33.4712    26.5830 0.0000e+00
    983.252    210.000     3.8703  31.250218    33.4723    26.5840 0.0000e+00
    985.096    211.000     3.8698  31.250088    33.4722    26.5839 0.0000e+00
    986.901    212.000     3.8703  31.252381    33.4739    26.5852 0.0000e+00
    988.794    213.000     3.8715  31.257016    33.4776    26.5880 0.0000e+00
    990.630    214.000     3.8722  31.259832    33.4797    26.5896 0.0000e+00
    992.360    215.000     3.8729  31.262249    33.4813    26.5909 0.0000e+00
    994.187    216.000     3.8736  31.264469    33.4827    26.5919 0.0000e+00
    995.976    217.000     3.8747  31.268396    33.4857    26.5942 0.0000e+00
    997.759    218.000     3.8757  31.272069    33.4885    26.5963 0.0000e+00
    999.659    219.000     3.8772  31.278626    33.4943    26.6007 0.0000e+00
   1001.465    220.000     3.8779  31.282271    33.4973    26.6031 0.0000e+00
   1003.236    221.000     3.8795  31.288341    33.5024    26.6069 0.0000e+00
   1005.071    222.000     3.8819  31.296176    33.5087    26.6117 0.0000e+00
   1007.056    223.000     3.8829  31.299755    33.5114    26.6138 0.0000e+00
   1009.040    224.000     3.8832  31.301147    33.5122    26.6144 0.0000e+00
   1010.897    225.000     3.8836  31.302343    33.5127    26.6147 0.0000e+00
   1012.747    226.000     3.8842  31.304143    33.5137    26.6155 0.0000e+00
   1014.558    227.000     3.8846  31.306123    33.5151    26.6166 0.0000e+00
   1016.448    228.000     3.8850  31.308442    33.5169    26.6180 0.0000e+00
   1018.437    229.000     3.8855  31.310143    33.5179    26.6187 0.0000e+00
   1020.382    230.000     3.8863  31.312619    33.5195    26.6199 0.0000e+00
   1022.170    231.000     3.8869  31.314234    33.5203    26.6204 0.0000e+00
   1024.004    232.000     3.8893  31.319240    33.5232    26.6226 0.0000e+00
   1025.878    233.000     3.8934  31.328092    33.5290    26.6267 0.0000e+00
   1027.722    234.000     3.8968  31.335748    33.5341    26.6304 0.0000e+00
   1029.613    235.000     3.8999  31.342363    33.5382    26.6334 0.0000e+00
   1031.549    236.000     3.9026  31.347783    33.5414    26.6356 0.0000e+00
   1033.328    237.000     3.9048  31.353477    33.5453    26.6386 0.0000e+00
   1035.115    238.000     3.9042  31.356897    33.5495    26.6419 0.0000e+00
   1037.104    239.000     3.9034  31.358131    33.5512    26.6434 0.0000e+00
   1038.993    240.000     3.9038  31.360435    33.5530    26.6448 0.0000e+00
   1040.781    241.000     3.9064  31.367674    33.5584    26.6488 0.0000e+00
   1042.574    242.000     3.9091  31.374597    33.5633    26.6525 0.0000e+00
   1044.316    243.000     3.9099  31.378811    33.5670    26.6553 0.0000e+00
   1046.149    244.000     3.9101  31.380654    33.5684    26.6564 0.0000e+00
   1048.053    245.000     3.9103  31.382748    33.5702    26.6578 0.0000e+00
   1049.919    246.000     3.9106  31.384507    33.5714    26.6588 0.0000e+00
   1051.829    247.000     3.9108  31.386070    33.5726    26.6597 0.0000e+00
   1053.654    248.000     3.9110  31.387149    33.5731    26.6601 0.0000e+00
   1055.529    249.000     3.9111  31.387836    33.5733    26.6602 0.0000e+00
   1057.618    250.000     3.9112  31.388534    33.5735    26.6604 0.0000e+00
   1059.649    251.000     3.9113  31.389980    33.5746    26.6612 0.0000e+00
   1061.639    252.000     3.9112  31.391635    33.5761    26.6625 0.0000e+00
   1063.640    253.000     3.9113  31.392845    33.5769    26.6631 0.0000e+00
   1065.715    254.000     3.9113  31.393792    33.5775    26.6636 0.0000e+00
   1067.603    255.000     3.9113  31.394796    33.5782    26.6641 0.0000e+00
   1069.556    256.000     3.9111  31.396375    33.5798    26.6653 0.0000e+00
   1071.358    257.000     3.9109  31.398031    33.5814    26.6667 0.0000e+00
   1073.053    258.000     3.9107  31.398990    33.5822    26.6673 0.0000e+00
   1074.809    259.000     3.9102  31.401180    33.5848    26.6695 0.0000e+00
   1076.581    260.000     3.9092  31.404786    33.5896    26.6733 0.0000e+00
   1078.402    261.000     3.9080  31.408038    33.5941    26.6771 0.0000e+00
   1080.260    262.000     3.9066  31.412119    33.5999    26.6818 0.0000e+00
   1082.058    263.000     3.9057  31.415154    33.6039    26.6851 0.0000e+00
   1083.885    264.000     3.9053  31.417177    33.6062    26.6869 0.0000e+00
   1086.030    265.000     3.9051  31.419012    33.6080    26.6884 0.0000e+00
   1088.130    266.000     3.9050  31.420442    33.6093    26.6895 0.0000e+00
   1090.080    267.000     3.9049  31.421543    33.6102    26.6902 0.0000e+00
   1092.104    268.000     3.9047  31.422919    33.6115    26.6912 0.0000e+00
   1094.059    269.000     3.9044  31.425013    33.6137    26.6931 0.0000e+00
   1096.075    270.000     3.9039  31.427250    33.6164    26.6952 0.0000e+00
   1098.012    271.000     3.9035  31.429217    33.6186    26.6970 0.0000e+00
   1099.791    272.000     3.9031  31.431108    33.6207    26.6988 0.0000e+00
   1101.579    273.000     3.9027  31.434045    33.6241    26.7015 0.0000e+00
   1103.440    274.000     3.9021  31.437275    33.6280    26.7046 0.0000e+00
   1105.315    275.000     3.9016  31.439690    33.6309    26.7070 0.0000e+00
   1107.146    276.000     3.9012  31.442331    33.6339    26.7094 0.0000e+00
   1108.913    277.000     3.9011  31.445183    33.6368    26.7118 0.0000e+00
   1110.688    278.000     3.9010  31.447337    33.6390    26.7135 0.0000e+00
   1112.510    279.000     3.9008  31.450795    33.6428    26.7165 0.0000e+00
   1114.338    280.000     3.9005  31.454768    33.6472    26.7201 0.0000e+00
   1116.139    281.000     3.9000  31.459429    33.6528    26.7245 0.0000e+00
   1117.844    282.000     3.8994  31.463159    33.6573    26.7282 0.0000e+00
   1119.585    283.000     3.8989  31.464592    33.6590    26.7296 0.0000e+00
   1121.389    284.000     3.8980  31.466242    33.6613    26.7316 0.0000e+00
   1123.227    285.000     3.8969  31.467883    33.6639    26.7337 0.0000e+00
   1125.116    286.000     3.8953  31.469536    33.6669    26.7363 0.0000e+00
   1126.945    287.000     3.8947  31.470354    33.6680    26.7372 0.0000e+00
   1128.750    288.000     3.8944  31.470981    33.6685    26.7377 0.0000e+00
   1130.605    289.000     3.8935  31.471975    33.6701    26.7390 0.0000e+00
   1132.398    290.000     3.8926  31.472947    33.6717    26.7403 0.0000e+00
   1134.338    291.000     3.8919  31.473652    33.6727    26.7412 0.0000e+00
   1136.310    292.000     3.8913  31.474408    33.6737    26.7421 0.0000e+00
   1138.150    293.000     3.8911  31.475120    33.6742    26.7425 0.0000e+00
   1139.931    294.000     3.8909  31.475734    33.6746    26.7428 0.0000e+00
   1141.678    295.000     3.8907  31.476555    33.6753    26.7434 0.0000e+00
   1143.398    296.000     3.8905  31.477315    33.6759    26.7439 0.0000e+00
   1145.085    297.000     3.8901  31.478186    33.6768    26.7446 0.0000e+00
   1146.809    298.000     3.8896  31.479270    33.6781    26.7457 0.0000e+00
   1148.429    299.000     3.8879  31.481149    33.6815    26.7486 0.0000e+00
   1150.077    300.000     3.8854  31.483583    33.6864    26.7528 0.0000e+00
   1151.763    301.000     3.8845  31.484952    33.6885    26.7545 0.0000e+00
   1153.504    302.000     3.8840  31.486059    33.6898    26.7556 0.0000e+00
   1155.265    303.000     3.8838  31.486611    33.6901    26.7559 0.0000e+00
   1157.012    304.000     3.8837  31.487250    33.6904    26.7562 0.0000e+00
   1164.695    305.000     3.8837  31.487890    33.6907    26.7563 0.0000e+00
   1170.910    304.000     3.8836  31.487417    33.6907    26.7564 0.0000e+00
   1173.381    303.000     3.8837  31.486796    33.6904    26.7561 0.0000e+00
   1176.221    302.000     3.8837  31.486073    33.6901    26.7559 0.0000e+00
   1178.807    301.000     3.8838  31.485440    33.6898    26.7556 0.0000e+00
   1181.183    300.000     3.8845  31.484266    33.6882    26.7543 0.0000e+00
   1183.739    299.000     3.8861  31.482059    33.6844    26.7511 0.0000e+00
   1186.515    298.000     3.8888  31.479412    33.6790    26.7466 0.0000e+00
   1189.068    297.000     3.8902  31.477970    33.6764    26.7443 0.0000e+00
   1191.664    296.000     3.8906  31.476846    33.6752    26.7433 0.0000e+00
   1194.583    295.000     3.8908  31.476059    33.6746    26.7428 0.0000e+00
   1197.577    294.000     3.8910  31.475323    33.6740    26.7424 0.0000e+00
   1200.208    293.000     3.8911  31.474826    33.6739    26.7422 0.0000e+00
   1203.160    292.000     3.8914  31.474084    33.6732    26.7417 0.0000e+00
   1205.918    291.000     3.8916  31.473492    33.6728    26.7413 0.0000e+00
   1208.734    290.000     3.8918  31.472814    33.6723    26.7409 0.0000e+00
   1211.346    289.000     3.8921  31.472171    33.6718    26.7405 0.0000e+00
   1213.854    288.000     3.8930  31.471259    33.6703    26.7392 0.0000e+00
   1216.181    287.000     3.8939  31.470298    33.6688    26.7379 0.0000e+00
   1218.660    286.000     3.8950  31.469225    33.6669    26.7363 0.0000e+00
   1221.200    285.000     3.8957  31.468229    33.6655    26.7351 0.0000e+00
   1223.749    284.000     3.8969  31.467013    33.6634    26.7333 0.0000e+00
   1226.679    283.000     3.8977  31.465807    33.6616    26.7318 0.0000e+00
   1229.539    282.000     3.8985  31.464150    33.6594    26.7300 0.0000e+00
   1232.615    281.000     3.8996  31.462242    33.6565    26.7276 0.0000e+00
   1235.546    280.000     3.9001  31.460610    33.6546    26.7260 0.0000e+00
   1238.404    279.000     3.9003  31.457936    33.6517    26.7237 0.0000e+00
   1241.260    278.000     3.9008  31.452578    33.6454    26.7186 0.0000e+00
   1243.998    277.000     3.9010  31.449274    33.6418    26.7157 0.0000e+00
   1246.583    276.000     3.9011  31.446917    33.6394    26.7138 0.0000e+00
   1248.954    275.000     3.9013  31.444942    33.6374    26.7122 0.0000e+00
   1251.571    274.000     3.9014  31.442314    33.6347    26.7100 0.0000e+00
   1254.269    273.000     3.9015  31.439631    33.6319    26.7078 0.0000e+00
   1256.959    272.000     3.9018  31.437721    33.6299    26.7062 0.0000e+00
   1259.517    271.000     3.9020  31.435564    33.6277    26.7044 0.0000e+00
   1262.155    270.000     3.9024  31.433492    33.6253    26.7025 0.0000e+00
   1264.560    269.000     3.9026  31.431314    33.6231    26.7007 0.0000e+00
   1267.130    268.000     3.9031  31.428546    33.6198    26.6980 0.0000e+00
   1269.612    267.000     3.9035  31.426787    33.6178    26.6964 0.0000e+00
   1271.995    266.000     3.9037  31.425692    33.6168    26.6956 0.0000e+00
   1274.601    265.000     3.9037  31.424373    33.6158    26.6948 0.0000e+00
   1277.327    264.000     3.9039  31.423139    33.6147    26.6938 0.0000e+00
   1279.983    263.000     3.9040  31.421713    33.6134    26.6928 0.0000e+00
   1282.521    262.000     3.9043  31.419773    33.6113    26.6911 0.0000e+00
   1285.321    261.000     3.9045  31.417532    33.6090    26.6893 0.0000e+00
   1288.121    260.000     3.9047  31.415489    33.6069    26.6876 0.0000e+00
   1290.912    259.000     3.9050  31.413801    33.6051    26.6861 0.0000e+00
   1293.654    258.000     3.9054  31.411874    33.6029    26.6843 0.0000e+00
   1296.532    257.000     3.9058  31.410143    33.6010    26.6828 0.0000e+00
   1299.312    256.000     3.9061  31.408765    33.5996    26.6816 0.0000e+00
   1302.017    255.000     3.9065  31.406513    33.5970    26.6795 0.0000e+00
   1304.951    254.000     3.9073  31.404179    33.5939    26.6770 0.0000e+00
   1307.839    253.000     3.9088  31.399598    33.5875    26.6717 0.0000e+00
   1310.639    252.000     3.9095  31.396964    33.5842    26.6690 0.0000e+00
   1313.451    251.000     3.9099  31.395030    33.5820    26.6673 0.0000e+00
   1316.685    250.000     3.9106  31.392463    33.5788    26.6646 0.0000e+00
   1319.897    249.000     3.9113  31.389481    33.5750    26.6616 0.0000e+00
   1322.825    248.000     3.9115  31.388052    33.5737    26.6605 0.0000e+00
   1326.254    247.000     3.9115  31.387224    33.5732    26.6601 0.0000e+00
   1329.331    246.000     3.9115  31.386281    33.5726    26.6596 0.0000e+00
   1332.173    245.000     3.9115  31.385049    33.5717    26.6589 0.0000e+00
   1335.067    244.000     3.9114  31.384059    33.5711    26.6585 0.0000e+00
   1338.131    243.000     3.9113  31.382711    33.5702    26.6577 0.0000e+00
   1341.179    242.000     3.9111  31.380588    33.5684    26.6563 0.0000e+00
   1344.481    241.000     3.9111  31.378536    33.5665    26.6548 0.0000e+00
   1347.864    240.000     3.9110  31.377204    33.5655    26.6540 0.0000e+00
   1351.677    239.000     3.9107  31.373942    33.5625    26.6517 0.0000e+00
   1355.265    238.000     3.9102  31.369659    33.5584    26.6485 0.0000e+00
   1359.059    237.000     3.9099  31.367564    33.5568    26.6472 0.0000e+00
   1362.607    236.000     3.9083  31.363737    33.5544    26.6455 0.0000e+00
   1366.082    235.000     3.9054  31.354924    33.5475    26.6402 0.0000e+00
   1369.771    234.000     3.9052  31.351454    33.5441    26.6376 0.0000e+00
   1373.294    233.000     3.9024  31.343544    33.5381    26.6331 0.0000e+00
   1376.908    232.000     3.8982  31.334390    33.5321    26.6287 0.0000e+00
   1380.860    231.000     3.8939  31.325433    33.5264    26.6246 0.0000e+00
   1384.685    230.000     3.8913  31.318988    33.5219    26.6213 0.0000e+00
   1388.575    229.000     3.8883  31.311185    33.5163    26.6171 0.0000e+00
   1392.788    228.000     3.8864  31.307066    33.5139    26.6154 0.0000e+00
   1396.661    227.000     3.8855  31.304902    33.5127    26.6146 0.0000e+00
   1401.233    226.000     3.8848  31.303176    33.5119    26.6140 0.0000e+00
   1405.177    225.000     3.8843  31.301873    33.5114    26.6137 0.0000e+00
   1409.513    224.000     3.8840  31.300900    33.5111    26.6134 0.0000e+00
   1413.789    223.000     3.8835  31.299552    33.5105    26.6130 0.0000e+00
   1417.916    222.000     3.8828  31.297650    33.5095    26.6123 0.0000e+00
   1421.791    221.000     3.8828  31.297218    33.5095    26.6123 0.0000e+00
   1426.139    220.000     3.8821  31.294599    33.5077    26.6109 0.0000e+00
   1430.505    219.000     3.8821  31.291798    33.5049    26.6087 0.0000e+00
   1435.333    218.000     3.8821  31.289943    33.5032    26.6073 0.0000e+00
   1440.434    217.000     3.8822  31.288526    33.5019    26.6063 0.0000e+00
   1446.185    216.000     3.8819  31.283776    33.4971    26.6025 0.0000e+00
   1451.648    215.000     3.8811  31.280556    33.4947    26.6006 0.0000e+00
   1456.810    214.000     3.8801  31.278523    33.4938    26.6001 0.0000e+00
   1461.894    213.000     3.8779  31.274646    33.4920    26.5988 0.0000e+00
   1467.467    212.000     3.8770  31.271393    33.4896    26.5970 0.0000e+00
   1472.825    211.000     3.8743  31.265106    33.4854    26.5939 0.0000e+00
   1478.016    210.000     3.8738  31.263051    33.4840    26.5929 0.0000e+00
   1483.048    209.000     3.8734  31.260673    33.4821    26.5914 0.0000e+00
   1488.118    208.000     3.8726  31.257191    33.4793    26.5893 0.0000e+00
   1493.021    207.000     3.8715  31.253875    33.4770    26.5876 0.0000e+00
   1497.987    206.000     3.8708  31.251658    33.4756    26.5865 0.0000e+00
   1502.892    205.000     3.8699  31.248288    33.4731    26.5846 0.0000e+00
   1507.532    204.000     3.8686  31.243750    33.4696    26.5819 0.0000e+00
   1512.297    203.000     3.8668  31.237409    33.4644    26.5780 0.0000e+00
   1517.168    202.000     3.8649  31.231198    33.4595    26.5743 0.0000e+00
   1521.913    201.000     3.8637  31.226929    33.4562    26.5718 0.0000e+00
   1526.485    200.000     3.8623  31.222189    33.4525    26.5690 0.0000e+00
   1530.700    199.000     3.8604  31.216470    33.4482    26.5657 0.0000e+00
   1534.811    198.000     3.8589  31.212217    33.4452    26.5635 0.0000e+00
   1538.970    197.000     3.8583  31.210136    33.4439    26.5625 0.0000e+00
   1542.464    196.000     3.8571  31.206679    33.4415    26.5608 0.0000e+00
   1545.931    195.000     3.8561  31.203826    33.4397    26.5594 0.0000e+00
   1549.467    194.000     3.8529  31.196117    33.4343    26.5554 0.0000e+00
   1552.759    193.000     3.8491  31.187301    33.4283    26.5510 0.0000e+00
   1556.636    192.000     3.8457  31.180136    33.4238    26.5478 0.0000e+00
   1560.719    191.000     3.8426  31.173680    33.4198    26.5449 0.0000e+00
   1565.172    190.000     3.8411  31.170479    33.4181    26.5437 0.0000e+00
   1568.946    189.000     3.8404  31.168787    33.4173    26.5431 0.0000e+00
   1572.376    188.000     3.8386  31.164235    33.4143    26.5409 0.0000e+00
   1576.237    187.000     3.8367  31.160315    33.4121    26.5393 0.0000e+00
   1579.473    186.000     3.8348  31.156197    33.4096    26.5376 0.0000e+00
   1582.810    185.000     3.8314  31.148799    33.4049    26.5341 0.0000e+00
   1585.874    184.000     3.8296  31.144843    33.4025    26.5324 0.0000e+00
   1588.592    183.000     3.8283  31.141790    33.4007    26.5311 0.0000e+00
   1591.634    182.000     3.8268  31.138324    33.3987    26.5297 0.0000e+00
   1594.678    181.000     3.8251  31.134401    33.3963    26.5279 0.0000e+00
   1597.932    180.000     3.8232  31.129790    33.3933    26.5257 0.0000e+00
   1601.717    179.000     3.8214  31.125835    33.3909    26.5240 0.0000e+00
   1605.313    178.000     3.8201  31.122739    33.3891    26.5227 0.0000e+00
   1608.736    177.000     3.8192  31.120730    33.3882    26.5220 0.0000e+00
   1611.708    176.000     3.8182  31.118370    33.3869    26.5211 0.0000e+00
   1614.961    175.000     3.8161  31.113516    33.3838    26.5189 0.0000e+00
   1617.790    174.000     3.8138  31.107519    33.3796    26.5157 0.0000e+00
   1621.050    173.000     3.8110  31.100705    33.3749    26.5123 0.0000e+00
   1623.794    172.000     3.8068  31.091917    33.3692    26.5082 0.0000e+00
   1627.054    171.000     3.8042  31.086376    33.3658    26.5057 0.0000e+00
   1630.486    170.000     3.7995  31.077639    33.3608    26.5022 0.0000e+00
   1633.965    169.000     3.7917  31.062960    33.3518    26.4958 0.0000e+00
   1638.256    168.000     3.7868  31.053623    33.3462    26.4918 0.0000e+00
   1641.922    167.000     3.7846  31.048946    33.3435    26.4898 0.0000e+00
   1645.324    166.000     3.7829  31.043605    33.3394    26.4868 0.0000e+00
   1649.133    165.000     3.7788  31.034152    33.3328    26.4820 0.0000e+00
   1652.345    164.000     3.7698  31.019530    33.3252    26.4767 0.0000e+00
   1655.619    163.000     3.7569  30.999578    33.3151    26.4700 0.0000e+00
   1659.437    162.000     3.7516  30.991801    33.3118    26.4679 0.0000e+00
   1663.052    161.000     3.7447  30.981614    33.3072    26.4649 0.0000e+00
   1666.482    160.000     3.7308  30.963304    33.3001    26.4606 0.0000e+00
   1670.432    159.000     3.7293  30.959000    33.2971    26.4583 0.0000e+00
   1674.427    158.000     3.7268  30.952286    33.2922    26.4546 0.0000e+00
   1678.583    157.000     3.7245  30.945306    33.2867    26.4505 0.0000e+00
   1683.135    156.000     3.7258  30.942635    33.2827    26.4472 0.0000e+00
   1686.857    155.000     3.7353  30.946420    33.2781    26.4426 0.0000e+00
   1691.032    154.000     3.7281  30.934217    33.2714    26.4380 0.0000e+00
   1694.876    153.000     3.7189  30.921095    33.2657    26.4343 0.0000e+00
   1698.372    152.000     3.7114  30.909166    33.2597    26.4303 0.0000e+00
   1701.982    151.000     3.7053  30.899025    33.2543    26.4266 0.0000e+00
   1705.742    150.000     3.6934  30.882900    33.2478    26.4225 0.0000e+00
   1709.199    149.000     3.6771  30.861262    33.2391    26.4172 0.0000e+00
   1714.094    148.000     3.6630  30.841282    33.2302    26.4115 0.0000e+00
   1718.934    147.000     3.6606  30.836378    33.2273    26.4094 0.0000e+00
   1723.301    146.000     3.6563  30.829766    33.2244    26.4075 0.0000e+00
   1727.122    145.000     3.6438  30.812016    33.2165    26.4024 0.0000e+00
   1730.936    144.000     3.6391  30.805118    33.2135    26.4005 0.0000e+00
   1734.566    143.000     3.6274  30.789958    33.2079    26.3971 0.0000e+00
   1738.888    142.000     3.6194  30.779027    33.2035    26.3944 0.0000e+00
   1743.684    141.000     3.6159  30.773688    33.2013    26.3929 0.0000e+00
   1748.286    140.000     3.6174  30.773472    33.2000    26.3918 0.0000e+00
   1752.620    139.000     3.6154  30.768493    33.1966    26.3893 0.0000e+00
   1757.021    138.000     3.6138  30.762907    33.1921    26.3858 0.0000e+00
   1761.435    137.000     3.6117  30.756627    33.1873    26.3822 0.0000e+00
   1765.511    136.000     3.6240  30.764352    33.1845    26.3788 0.0000e+00
   1769.668    135.000     3.6300  30.765407    33.1802    26.3748 0.0000e+00
   1773.590    134.000     3.6137  30.746720    33.1750    26.3722 0.0000e+00
   1777.860    133.000     3.6013  30.729724    33.1679    26.3677 0.0000e+00
   1781.991    132.000     3.5860  30.711975    33.1628    26.3651 0.0000e+00
   1785.986    131.000     3.5867  30.708885    33.1589    26.3620 0.0000e+00
   1790.494    130.000     3.5920  30.709229    33.1544    26.3579 0.0000e+00
   1795.103    129.000     3.5910  30.705104    33.1510    26.3553 0.0000e+00
   1800.320    128.000     3.5799  30.692307    33.1476    26.3536 0.0000e+00
   1805.755    127.000     3.5718  30.682202    33.1443    26.3518 0.0000e+00
   1810.284    126.000     3.5709  30.678119    33.1409    26.3491 0.0000e+00
   1814.841    125.000     3.5729  30.676518    33.1374    26.3462 0.0000e+00
   1819.492    124.000     3.5690  30.668731    33.1326    26.3427 0.0000e+00
   1823.838    123.000     3.5729  30.671012    33.1319    26.3418 0.0000e+00
   1828.673    122.000     3.5749  30.672386    33.1320    26.3417 0.0000e+00
   1833.358    121.000     3.5829  30.679062    33.1324    26.3412 0.0000e+00
   1838.182    120.000     3.5898  30.679882    33.1269    26.3362 0.0000e+00
   1843.060    119.000     3.5938  30.678673    33.1219    26.3319 0.0000e+00
   1847.664    118.000     3.5986  30.680855    33.1202    26.3300 0.0000e+00
   1852.825    117.000     3.6000  30.681384    33.1199    26.3297 0.0000e+00
   1857.994    116.000     3.6043  30.683834    33.1190    26.3285 0.0000e+00
   1862.969    115.000     3.6110  30.686791    33.1162    26.3257 0.0000e+00
   1868.028    114.000     3.6144  30.687831    33.1145    26.3240 0.0000e+00
   1872.759    113.000     3.6178  30.688937    33.1129    26.3224 0.0000e+00
   1877.612    112.000     3.6236  30.690883    33.1099    26.3194 0.0000e+00
   1882.340    111.000     3.6307  30.692282    33.1049    26.3148 0.0000e+00
   1887.269    110.000     3.6348  30.692507    33.1015    26.3117 0.0000e+00
   1892.243    109.000     3.6380  30.692620    33.0989    26.3093 0.0000e+00
   1897.699    108.000     3.6410  30.691962    33.0956    26.3064 0.0000e+00
   1902.734    107.000     3.6475  30.691879    33.0894    26.3009 0.0000e+00
   1908.042    106.000     3.6489  30.691465    33.0880    26.2996 0.0000e+00
   1912.315    105.000     3.6525  30.692244    33.0858    26.2975 0.0000e+00
   1916.502    104.000     3.6548  30.692445    33.0843    26.2961 0.0000e+00
   1920.709    103.000     3.6553  30.691853    33.0836    26.2955 0.0000e+00
   1925.212    102.000     3.6557  30.691394    33.0831    26.2951 0.0000e+00
   1929.734    101.000     3.6570  30.691308    33.0822    26.2943 0.0000e+00
   1934.474    100.000     3.6603  30.691750    33.0800    26.2921 0.0000e+00
   1939.041     99.000     3.6737  30.695155    33.0709    26.2837 0.0000e+00
   1944.192     98.000     3.6819  30.697242    33.0656    26.2786 0.0000e+00
   1948.965     97.000     3.6870  30.698566    33.0626    26.2757 0.0000e+00
   1953.638     96.000     3.6965  30.701439    33.0569    26.2703 0.0000e+00
   1957.298     95.000     3.7029  30.703197    33.0530    26.2666 0.0000e+00
   1960.833     94.000     3.7075  30.704009    33.0498    26.2636 0.0000e+00
   1964.459     93.000     3.7113  30.705158    33.0479    26.2617 0.0000e+00
   1968.056     92.000     3.7199  30.705637    33.0403    26.2548 0.0000e+00
   1972.302     91.000     3.7271  30.702664    33.0300    26.2459 0.0000e+00
   1977.473     90.000     3.7293  30.700619    33.0258    26.2424 0.0000e+00
   1981.839     89.000     3.7295  30.699946    33.0253    26.2420 0.0000e+00
   1985.711     88.000     3.7304  30.699246    33.0241    26.2410 0.0000e+00
   1989.063     87.000     3.7333  30.698121    33.0204    26.2377 0.0000e+00
   1992.500     86.000     3.7374  30.696187    33.0145    26.2326 0.0000e+00
   1996.004     85.000     3.7405  30.694679    33.0100    26.2288 0.0000e+00
   1999.656     84.000     3.7432  30.693531    33.0065    26.2257 0.0000e+00
   2003.143     83.000     3.7441  30.693123    33.0056    26.2249 0.0000e+00
   2007.431     82.000     3.7461  30.692643    33.0035    26.2231 0.0000e+00
   2011.465     81.000     3.7505  30.692059    32.9989    26.2190 0.0000e+00
   2015.354     80.000     3.7561  30.691427    32.9930    26.2137 0.0000e+00
   2018.767     79.000     3.7662  30.691536    32.9835    26.2051 0.0000e+00
   2021.844     78.000     3.7748  30.692642    32.9766    26.1989 0.0000e+00
   2025.311     77.000     3.7893  30.695309    32.9657    26.1887 0.0000e+00
   2028.854     76.000     3.8045  30.698825    32.9550    26.1788 0.0000e+00
   2032.184     75.000     3.8124  30.701008    32.9502    26.1742 0.0000e+00
   2036.289     74.000     3.8179  30.702990    32.9475    26.1715 0.0000e+00
   2040.448     73.000     3.8234  30.704921    32.9448    26.1688 0.0000e+00
   2044.640     72.000     3.8307  30.707056    32.9405    26.1647 0.0000e+00
   2048.686     71.000     3.8331  30.707472    32.9391    26.1633 0.0000e+00
   2052.173     70.000     3.8356  30.707720    32.9374    26.1617 0.0000e+00
   2055.435     69.000     3.8410  30.709119    32.9341    26.1586 0.0000e+00
   2058.704     68.000     3.8556  30.714547    32.9263    26.1510 0.0000e+00
   2062.082     67.000     3.8754  30.722682    32.9166    26.1413 0.0000e+00
   2066.374     66.000     3.8895  30.728962    32.9103    26.1350 0.0000e+00
   2070.965     65.000     3.9046  30.737351    32.9056    26.1297 0.0000e+00
   2074.848     64.000     3.9099  30.740470    32.9045    26.1283 0.0000e+00
   2078.699     63.000     3.9153  30.743821    32.9035    26.1270 0.0000e+00
   2082.369     62.000     3.9329  30.754400    32.8989    26.1216 0.0000e+00
   2085.981     61.000     3.9918  30.788798    32.8809    26.1015 0.0000e+00
   2089.605     60.000     4.0269  30.808634    32.8696    26.0890 0.0000e+00
   2093.386     59.000     4.0618  30.828894    32.8591    26.0772 0.0000e+00
   2097.248     58.000     4.0826  30.840791    32.8528    26.0701 0.0000e+00
   2101.208     57.000     4.1250  30.865512    32.8400    26.0556 0.0000e+00
   2105.730     56.000     4.2016  30.911335    32.8178    26.0303 0.0000e+00
   2110.639     55.000     4.2143  30.919030    32.8147    26.0265 0.0000e+00
   2115.134     54.000     4.2303  30.928693    32.8106    26.0216 0.0000e+00
   2119.352     53.000     4.3229  30.985757    32.7857    25.9924 0.0000e+00
   2123.605     52.000     4.4006  31.033808    32.7651    25.9680 0.0000e+00
   2127.457     51.000     4.4142  31.042070    32.7618    25.9640 0.0000e+00
   2131.527     50.000     4.4274  31.049971    32.7584    25.9599 0.0000e+00
   2135.640     49.000     4.4679  31.075544    32.7485    25.9479 0.0000e+00
   2140.112     48.000     4.5450  31.125963    32.7314    25.9262 0.0000e+00
   2144.533     47.000     4.5748  31.147430    32.7274    25.9198 0.0000e+00
   2148.728     46.000     4.6135  31.175919    32.7227    25.9120 0.0000e+00
   2153.289     45.000     4.6384  31.194042    32.7196    25.9069 0.0000e+00
   2157.954     44.000     4.6454  31.198555    32.7185    25.9053 0.0000e+00
   2162.459     43.000     4.6518  31.203273    32.7181    25.9043 0.0000e+00
   2167.567     42.000     4.6625  31.211445    32.7175    25.9027 0.0000e+00
   2172.523     41.000     4.6787  31.225006    32.7178    25.9012 0.0000e+00
   2177.531     40.000     4.6885  31.232125    32.7169    25.8994 0.0000e+00
   2182.172     39.000     4.7004  31.239370    32.7140    25.8959 0.0000e+00
   2186.860     38.000     4.7023  31.236857    32.7097    25.8923 0.0000e+00
   2191.239     37.000     4.7045  31.235390    32.7064    25.8894 0.0000e+00
   2195.546     36.000     4.7156  31.243469    32.7053    25.8873 0.0000e+00
   2200.071     35.000     4.7277  31.252700    32.7046    25.8854 0.0000e+00
   2204.427     34.000     4.7337  31.256899    32.7040    25.8844 0.0000e+00
   2209.008     33.000     4.7430  31.263531    32.7030    25.8826 0.0000e+00
   2213.768     32.000     4.7550  31.271554    32.7010    25.8797 0.0000e+00
   2218.299     31.000     4.7575  31.271614    32.6991    25.8779 0.0000e+00
   2222.928     30.000     4.7611  31.273639    32.6984    25.8770 0.0000e+00
   2227.156     29.000     4.7649  31.275735    32.6976    25.8759 0.0000e+00
   2231.921     28.000     4.7697  31.278032    32.6960    25.8741 0.0000e+00
   2236.196     27.000     4.7803  31.283719    32.6927    25.8703 0.0000e+00
   2240.680     26.000     4.7893  31.289336    32.6908    25.8679 0.0000e+00
   2245.200     25.000     4.7949  31.293253    32.6903    25.8669 0.0000e+00
   2249.685     24.000     4.7993  31.296419    32.6902    25.8663 0.0000e+00
   2254.158     23.000     4.8028  31.298661    32.6898    25.8656 0.0000e+00
   2258.415     22.000     4.8196  31.312150    32.6894    25.8634 0.0000e+00
   2262.707     21.000     4.8868  31.369208    32.6896    25.8563 0.0000e+00
   2266.754     20.000     5.0771  31.531701    32.6902    25.8357 0.0000e+00
   2271.072     19.000     5.1378  31.580609    32.6873    25.8267 0.0000e+00
   2275.198     18.000     5.1890  31.624200    32.6876    25.8211 0.0000e+00
   2279.422     17.000     5.2498  31.674220    32.6858    25.8128 0.0000e+00
   2283.593     16.000     5.2758  31.694369    32.6839    25.8084 0.0000e+00
   2287.758     15.000     5.3803  31.780758    32.6809    25.7940 0.0000e+00
   2291.951     14.000     5.4868  31.867141    32.6758    25.7777 0.0000e+00
   2295.938     13.000     5.5890  31.951431    32.6725    25.7631 0.0000e+00
   2300.021     12.000     5.7387  32.082097    32.6754    25.7476 0.0000e+00
   2303.793     11.000     5.8860  32.201176    32.6673    25.7236 0.0000e+00
   2307.731     10.000     6.1304  32.398301    32.6529    25.6822 0.0000e+00
   2311.582      9.000     6.4823  32.695508    32.6461    25.6326 0.0000e+00
   2315.320      8.000     6.6612  32.846471    32.6423    25.6066 0.0000e+00
   2319.219      7.000     6.6735  32.857549    32.6433    25.6057 0.0000e+00
   2323.373      6.000     6.6811  32.864674    32.6444    25.6056 0.0000e+00
   2327.585      5.000     6.6844  32.867484    32.6448    25.6055 0.0000e+00
   2331.826      4.000     6.6865  32.869729    32.6457    25.6060 0.0000e+00
   2336.285      3.000     6.6841  32.867640    32.6462    25.6066 0.0000e+00
   2351.017      2.000     6.6845  32.867889    32.6466    25.6069 0.0000e+00
   2360.662      1.000     6.6788  31.693037    31.3622    24.5957 0.0000e+00
