* Sea-Bird SBE 19plus Data File:
* FileName = C:\Sea-Bird Data\2014\DY1405\Casts\BON049.hex
* Software Version Seasave V 7.22.3
* Temperature SN = 4530
* Conductivity SN = 4530
* System UpLoad Time = May 16 2014 14:21:37
* Real-Time Sample Interval = 0.2500 seconds
* System UTC = May 16 2014 14:21:37
# nquan = 7                                 
# nvalues = 545                         
# units = specified
# name 0 = timeS: Time, Elapsed [seconds]
# name 1 = prdM: Pressure, Strain Gauge [db]
# name 2 = tv290C: Temperature [ITS-90, deg C]
# name 3 = c0mS/cm: Conductivity [mS/cm]
# name 4 = sal00: Salinity, Practical [PSU]
# name 5 = sigma-t00: Density [sigma-t, Kg/m^3 ]
# name 6 = flag: flag
# span 0 =    563.035,   2261.844       
# span 1 =      1.000,    273.000       
# span 2 =     3.4808,     6.0300       
# span 3 =  28.065584,  31.978668       
# span 4 =    28.1703,    33.2828       
# span 5 =    22.1865,    26.4426       
# span 6 = 0.0000e+00, 0.0000e+00       
# interval = decibars: 1                
# start_time = May 16 2014 14:21:37 [System UTC, header]
# bad_flag = -9.990e-29
# <Sensors count="3" >
#   <sensor Channel="1" >
#     <!-- Count, Temperature -->
#     <TemperatureSensor SensorID="58" >
#       <SerialNumber>4530</SerialNumber>
#       <CalibrationDate>03-Dec-13</CalibrationDate>
#       <A0>1.22471000e-003</A0>
#       <A1>2.66234600e-004</A1>
#       <A2>-3.25282000e-007</A2>
#       <A3>1.63905300e-007</A3>
#       <Slope>1.00000000</Slope>
#       <Offset>0.0000</Offset>
#     </TemperatureSensor>
#   </sensor>
#   <sensor Channel="2" >
#     <!-- Frequency 0, Conductivity -->
#     <ConductivitySensor SensorID="3" >
#       <SerialNumber>4530</SerialNumber>
#       <CalibrationDate>03-Dec-13</CalibrationDate>
#       <UseG_J>1</UseG_J>
#       <!-- Cell const and series R are applicable only for wide range sensors. -->
#       <SeriesR>0.0000</SeriesR>
#       <CellConst>2000.0000</CellConst>
#       <ConductivityType>0</ConductivityType>
#       <Coefficients equation="0" >
#         <A>0.00000000e+000</A>
#         <B>0.00000000e+000</B>
#         <C>0.00000000e+000</C>
#         <D>0.00000000e+000</D>
#         <M>0.0</M>
#         <CPcor>-9.57000000e-008</CPcor>
#       </Coefficients>
#       <Coefficients equation="1" >
#         <G>-9.84131900e-001</G>
#         <H>1.41458700e-001</H>
#         <I>-1.92288200e-004</I>
#         <J>3.59848200e-005</J>
#         <CPcor>-9.57000000e-008</CPcor>
#         <CTcor>3.2500e-006</CTcor>
#         <!-- WBOTC not applicable unless ConductivityType = 1. -->
#         <WBOTC>0.00000000e+000</WBOTC>
#       </Coefficients>
#       <Slope>1.00000000</Slope>
#       <Offset>0.00000</Offset>
#     </ConductivitySensor>
#   </sensor>
#   <sensor Channel="3" >
#     <!-- Count, Pressure, Strain Gauge -->
#     <PressureSensor SensorID="46" >
#       <SerialNumber>4530</SerialNumber>
#       <CalibrationDate>02-Dec-13</CalibrationDate>
#       <PA0>-3.35712300e-001</PA0>
#       <PA1>1.56795400e-002</PA1>
#       <PA2>-6.60390500e-010</PA2>
#       <PTEMPA0>-6.74611800e+001</PTEMPA0>
#       <PTEMPA1>5.06446900e+001</PTEMPA1>
#       <PTEMPA2>-4.65162800e-001</PTEMPA2>
#       <PTCA0>5.24503600e+005</PTCA0>
#       <PTCA1>-3.17070100e-002</PTCA1>
#       <PTCA2>-4.70494400e-002</PTCA2>
#       <PTCB0>2.49031200e+001</PTCB0>
#       <PTCB1>-5.75000000e-004</PTCB1>
#       <PTCB2>0.00000000e+000</PTCB2>
#       <Offset>0.000000</Offset>
#     </PressureSensor>
#   </sensor>
# </Sensors>
# datcnv_date = May 17 2014 01:11:35, 7.22.2 [datcnv_vars = 4]
# datcnv_in = c:\data\seacat\current\bon049.hex c:\data\seacat\current\bon049.XMLCON
# datcnv_skipover = 0
# filter_date = May 17 2014 01:11:35, 7.22.2
# filter_in = c:\data\seacat\current\bon049.cnv
# filter_low_pass_tc_A = 0.500
# filter_low_pass_tc_B = 2.000
# filter_low_pass_A_vars = prdM tv290C c0mS/cm
# filter_low_pass_B_vars =
# alignctd_date = May 17 2014 01:11:35, 7.22.2
# alignctd_in = c:\data\seacat\current\bon049.cnv
# alignctd_adv = tv290C 0.500                                                                                                                                                                                                        
# wildedit_date = May 17 2014 01:11:35, 7.22.2
# wildedit_in = c:\data\seacat\current\bon049.cnv
# wildedit_pass1_nstd = 2.0
# wildedit_pass2_nstd = 15.0
# wildedit_pass2_mindelta = 1.000e-002
# wildedit_npoint = 100
# wildedit_vars = prdM tv290C c0mS/cm
# wildedit_excl_bad_scans = yes
# binavg_date = May 17 2014 01:11:36, 7.22.2
# binavg_in = c:\data\seacat\current\bon049.cnv
# binavg_bintype = decibars
# binavg_binsize = 1
# binavg_excl_bad_scans = yes
# binavg_skipover = 0
# binavg_surface_bin = no, min = 0.000, max = 0.500, value = 0.000
# Derive_date = May 17 2014 01:11:36, 7.22.2 [derive_vars = 2]
# Derive_in = c:\data\seacat\current\bon049.cnv c:\data\seacat\current\BON049.XMLcon
# file_type = ascii
*END*
    563.035      1.000     5.7647  28.065584    28.1703    22.1865 0.0000e+00
    566.430      2.000     5.8067  31.940646    32.4553    25.5655 0.0000e+00
    570.677      3.000     5.7061  31.652530    32.2268    25.3969 0.0000e+00
    575.426      4.000     5.7344  31.737812    32.2953    25.4477 0.0000e+00
    576.780      5.000     5.6799  31.697665    32.3018    25.4593 0.0000e+00
    578.988      6.000     5.6030  31.638477    32.3083    25.4735 0.0000e+00
    580.503      7.000     5.5698  31.616620    32.3150    25.4826 0.0000e+00
    581.963      8.000     5.5400  31.600342    32.3247    25.4938 0.0000e+00
    583.916      9.000     5.5088  31.578433    32.3295    25.5011 0.0000e+00
    585.525     10.000     5.4794  31.559853    32.3362    25.5099 0.0000e+00
    587.357     11.000     5.4642  31.544565    32.3330    25.5091 0.0000e+00
    589.284     12.000     5.4287  31.526218    32.3459    25.5234 0.0000e+00
    591.154     13.000     5.4167  31.510771    32.3395    25.5197 0.0000e+00
    593.226     14.000     5.3535  31.503395    32.3916    25.5682 0.0000e+00
    595.169     15.000     5.2458  31.498043    32.4895    25.6578 0.0000e+00
    597.557     16.000     5.1196  31.492186    32.6052    25.7637 0.0000e+00
    599.440     17.000     5.0372  31.465810    32.6551    25.8124 0.0000e+00
    601.490     18.000     4.7293  31.040205    32.4656    25.6957 0.0000e+00
    603.428     19.000     4.5286  30.793519    32.3756    25.6455 0.0000e+00
    605.190     20.000     4.5133  30.792116    32.3884    25.6573 0.0000e+00
    607.098     21.000     4.5887  30.880167    32.4163    25.6716 0.0000e+00
    608.939     22.000     4.6093  30.903480    32.4227    25.6744 0.0000e+00
    610.823     23.000     4.5946  30.892619    32.4240    25.6770 0.0000e+00
    612.724     24.000     4.5795  30.879838    32.4234    25.6782 0.0000e+00
    614.590     25.000     4.5665  30.871240    32.4257    25.6813 0.0000e+00
    616.447     26.000     4.5549  30.864946    32.4292    25.6854 0.0000e+00
    618.260     27.000     4.5495  30.862818    32.4316    25.6878 0.0000e+00
    620.213     28.000     4.5488  30.864973    32.4342    25.6900 0.0000e+00
    622.138     29.000     4.5459  30.866016    32.4378    25.6931 0.0000e+00
    623.943     30.000     4.5397  30.864365    32.4415    25.6966 0.0000e+00
    625.998     31.000     4.5329  30.862206    32.4451    25.7003 0.0000e+00
    627.912     32.000     4.5293  30.861274    32.4471    25.7022 0.0000e+00
    629.972     33.000     4.5277  30.860681    32.4474    25.7026 0.0000e+00
    632.098     34.000     4.5262  30.860291    32.4479    25.7032 0.0000e+00
    634.330     35.000     4.5224  30.860505    32.4514    25.7063 0.0000e+00
    636.330     36.000     4.5205  30.868271    32.4618    25.7148 0.0000e+00
    638.505     37.000     4.5437  30.902197    32.4780    25.7252 0.0000e+00
    640.759     38.000     4.5981  30.968178    32.5007    25.7375 0.0000e+00
    642.584     39.000     4.6559  31.035005    32.5209    25.7474 0.0000e+00
    644.813     40.000     4.6808  31.061330    32.5265    25.7492 0.0000e+00
    646.828     41.000     4.7286  31.114875    32.5411    25.7557 0.0000e+00
    648.821     42.000     4.7667  31.158436    32.5535    25.7615 0.0000e+00
    650.605     43.000     4.7745  31.168772    32.5573    25.7636 0.0000e+00
    652.653     44.000     4.7743  31.170205    32.5587    25.7647 0.0000e+00
    654.867     45.000     4.7722  31.169443    32.5594    25.7655 0.0000e+00
    656.714     46.000     4.7778  31.178632    32.5640    25.7686 0.0000e+00
    658.656     47.000     4.7715  31.176524    32.5672    25.7718 0.0000e+00
    660.714     48.000     4.7747  31.182570    32.5706    25.7741 0.0000e+00
    662.731     49.000     4.7833  31.191773    32.5722    25.7745 0.0000e+00
    664.840     50.000     4.7891  31.198509    32.5738    25.7752 0.0000e+00
    666.928     51.000     4.7931  31.204088    32.5758    25.7763 0.0000e+00
    669.181     52.000     4.7774  31.192497    32.5774    25.7792 0.0000e+00
    671.259     53.000     4.6792  31.103741    32.5706    25.7844 0.0000e+00
    673.534     54.000     4.6295  31.060146    32.5684    25.7879 0.0000e+00
    675.842     55.000     4.6051  31.038474    32.5668    25.7892 0.0000e+00
    678.088     56.000     4.5361  30.976961    32.5627    25.7932 0.0000e+00
    680.181     57.000     4.4304  30.886186    32.5607    25.8027 0.0000e+00
    682.690     58.000     4.3647  30.840435    32.5717    25.8181 0.0000e+00
    684.622     59.000     4.3312  30.824717    32.5859    25.8329 0.0000e+00
    686.698     60.000     4.2761  30.788755    32.5978    25.8480 0.0000e+00
    688.733     61.000     4.2300  30.758214    32.6072    25.8601 0.0000e+00
    690.803     62.000     4.2205  30.752867    32.6099    25.8632 0.0000e+00
    692.930     63.000     4.2200  30.757193    32.6149    25.8672 0.0000e+00
    694.615     64.000     4.2255  30.767304    32.6208    25.8714 0.0000e+00
    696.480     65.000     4.2318  30.777623    32.6261    25.8750 0.0000e+00
    698.387     66.000     4.2459  30.796004    32.6332    25.8791 0.0000e+00
    700.467     67.000     4.2587  30.811752    32.6384    25.8820 0.0000e+00
    702.459     68.000     4.2727  30.828709    32.6439    25.8849 0.0000e+00
    704.285     69.000     4.2727  30.831857    32.6471    25.8874 0.0000e+00
    706.330     70.000     4.2500  30.814651    32.6489    25.8912 0.0000e+00
    708.551     71.000     4.2395  30.808399    32.6515    25.8943 0.0000e+00
    710.926     72.000     4.2365  30.809286    32.6550    25.8974 0.0000e+00
    713.104     73.000     4.2350  30.812951    32.6603    25.9018 0.0000e+00
    715.413     74.000     4.2051  30.787037    32.6591    25.9038 0.0000e+00
    717.479     75.000     4.2032  30.789063    32.6628    25.9070 0.0000e+00
    719.502     76.000     4.2074  30.802273    32.6736    25.9152 0.0000e+00
    721.735     77.000     4.2076  30.815452    32.6884    25.9269 0.0000e+00
    723.655     78.000     4.2115  30.836821    32.7091    25.9429 0.0000e+00
    725.537     79.000     4.1908  30.835635    32.7278    25.9599 0.0000e+00
    727.587     80.000     4.1825  30.836404    32.7364    25.9676 0.0000e+00
    730.094     81.000     4.1804  30.840145    32.7424    25.9725 0.0000e+00
    732.145     82.000     4.1804  30.841955    32.7440    25.9738 0.0000e+00
    734.705     83.000     4.1792  30.842061    32.7448    25.9746 0.0000e+00
    737.168     84.000     4.1786  30.843485    32.7466    25.9760 0.0000e+00
    739.384     85.000     4.1777  30.849878    32.7545    25.9824 0.0000e+00
    741.837     86.000     4.1745  30.851585    32.7591    25.9864 0.0000e+00
    744.094     87.000     4.1689  30.849813    32.7621    25.9894 0.0000e+00
    746.248     88.000     4.1670  30.851240    32.7652    25.9920 0.0000e+00
    748.318     89.000     4.1650  30.854405    32.7704    25.9963 0.0000e+00
    750.667     90.000     4.1671  30.864653    32.7798    26.0036 0.0000e+00
    752.763     91.000     4.1698  30.870212    32.7831    26.0060 0.0000e+00
    754.819     92.000     4.1726  30.873975    32.7842    26.0066 0.0000e+00
    757.316     93.000     4.1724  30.876067    32.7864    26.0083 0.0000e+00
    759.384     94.000     4.1886  30.896210    32.7934    26.0122 0.0000e+00
    761.516     95.000     4.2020  30.913626    32.7999    26.0161 0.0000e+00
    763.714     96.000     4.2111  30.928043    32.8073    26.0210 0.0000e+00
    765.883     97.000     4.2388  30.959651    32.8162    26.0253 0.0000e+00
    767.892     98.000     4.2548  30.982210    32.8262    26.0316 0.0000e+00
    770.227     99.000     4.2229  30.955028    32.8256    26.0343 0.0000e+00
    772.668    100.000     4.2145  30.948992    32.8264    26.0358 0.0000e+00
    774.826    101.000     4.2290  30.963877    32.8289    26.0363 0.0000e+00
    777.007    102.000     4.2464  30.981741    32.8320    26.0370 0.0000e+00
    779.212    103.000     4.2511  30.990152    32.8366    26.0402 0.0000e+00
    781.335    104.000     4.2289  30.973079    32.8382    26.0438 0.0000e+00
    783.810    105.000     4.2091  30.956943    32.8386    26.0460 0.0000e+00
    785.938    106.000     4.2030  30.951997    32.8383    26.0465 0.0000e+00
    787.917    107.000     4.1978  30.948064    32.8384    26.0470 0.0000e+00
    790.189    108.000     4.1731  30.927413    32.8383    26.0495 0.0000e+00
    792.598    109.000     4.1553  30.913408    32.8391    26.0519 0.0000e+00
    794.523    110.000     4.1531  30.912811    32.8401    26.0529 0.0000e+00
    796.802    111.000     4.1538  30.916786    32.8435    26.0556 0.0000e+00
    799.175    112.000     4.1633  30.929375    32.8483    26.0584 0.0000e+00
    801.310    113.000     4.1719  30.939232    32.8508    26.0595 0.0000e+00
    803.397    114.000     4.1819  30.953380    32.8569    26.0634 0.0000e+00
    805.575    115.000     4.1667  30.942190    32.8584    26.0661 0.0000e+00
    807.793    116.000     4.1503  30.930412    32.8605    26.0694 0.0000e+00
    809.711    117.000     4.1295  30.916555    32.8645    26.0747 0.0000e+00
    811.901    118.000     4.1256  30.916492    32.8678    26.0777 0.0000e+00
    814.069    119.000     4.1223  30.915461    32.8693    26.0793 0.0000e+00
    816.128    120.000     4.1178  30.913103    32.8705    26.0807 0.0000e+00
    818.310    121.000     4.1163  30.912943    32.8713    26.0815 0.0000e+00
    820.494    122.000     4.1152  30.913297    32.8723    26.0824 0.0000e+00
    822.638    123.000     4.1139  30.914067    32.8740    26.0838 0.0000e+00
    824.724    124.000     4.1119  30.913967    32.8754    26.0851 0.0000e+00
    826.935    125.000     4.1098  30.913848    32.8768    26.0865 0.0000e+00
    829.037    126.000     4.1055  30.911740    32.8782    26.0880 0.0000e+00
    831.221    127.000     4.0989  30.908827    32.8808    26.0907 0.0000e+00
    833.617    128.000     4.0936  30.908170    32.8848    26.0945 0.0000e+00
    835.808    129.000     4.0923  30.911067    32.8890    26.0979 0.0000e+00
    837.887    130.000     4.0930  30.915364    32.8929    26.1009 0.0000e+00
    840.172    131.000     4.0957  30.920318    32.8955    26.1027 0.0000e+00
    842.628    132.000     4.1004  30.927449    32.8987    26.1048 0.0000e+00
    844.671    133.000     4.0965  30.926332    32.9007    26.1068 0.0000e+00
    846.868    134.000     4.0929  30.924213    32.9013    26.1076 0.0000e+00
    849.318    135.000     4.0918  30.924791    32.9026    26.1088 0.0000e+00
    851.427    136.000     4.0896  30.924671    32.9041    26.1102 0.0000e+00
    853.798    137.000     4.0876  30.924616    32.9056    26.1115 0.0000e+00
    855.900    138.000     4.0859  30.924702    32.9068    26.1127 0.0000e+00
    857.954    139.000     4.0859  30.926143    32.9080    26.1137 0.0000e+00
    859.883    140.000     4.0899  30.931198    32.9095    26.1144 0.0000e+00
    861.776    141.000     4.0991  30.942251    32.9127    26.1161 0.0000e+00
    863.980    142.000     4.1150  30.958744    32.9157    26.1168 0.0000e+00
    865.939    143.000     4.1299  30.974112    32.9183    26.1174 0.0000e+00
    867.864    144.000     4.1329  30.978404    32.9199    26.1183 0.0000e+00
    869.813    145.000     4.1297  30.976153    32.9199    26.1187 0.0000e+00
    871.876    146.000     4.1261  30.971356    32.9173    26.1170 0.0000e+00
    873.883    147.000     4.0976  30.951229    32.9217    26.1234 0.0000e+00
    875.919    148.000     4.0672  30.930912    32.9277    26.1312 0.0000e+00
    878.166    149.000     4.0581  30.926779    32.9315    26.1351 0.0000e+00
    880.323    150.000     4.0566  30.927529    32.9334    26.1367 0.0000e+00
    882.656    151.000     4.0555  30.928167    32.9347    26.1379 0.0000e+00
    884.849    152.000     4.0549  30.928897    32.9356    26.1387 0.0000e+00
    887.258    153.000     4.0562  30.934462    32.9404    26.1424 0.0000e+00
    889.325    154.000     4.0629  30.944594    32.9451    26.1454 0.0000e+00
    891.334    155.000     4.0990  30.982939    32.9535    26.1485 0.0000e+00
    893.454    156.000     4.1151  30.999719    32.9566    26.1493 0.0000e+00
    895.508    157.000     4.1188  31.004247    32.9577    26.1498 0.0000e+00
    897.649    158.000     4.1223  31.007888    32.9579    26.1497 0.0000e+00
    899.688    159.000     4.1249  31.010619    32.9580    26.1495 0.0000e+00
    901.680    160.000     4.1515  31.038752    32.9639    26.1515 0.0000e+00
    903.678    161.000     4.1819  31.071482    32.9714    26.1543 0.0000e+00
    905.915    162.000     4.1821  31.072036    32.9713    26.1543 0.0000e+00
    908.003    163.000     4.1813  31.072213    32.9718    26.1547 0.0000e+00
    909.950    164.000     4.1881  31.080882    32.9747    26.1563 0.0000e+00
    911.885    165.000     4.1933  31.089873    32.9795    26.1596 0.0000e+00
    913.879    166.000     4.1916  31.091168    32.9822    26.1620 0.0000e+00
    915.889    167.000     4.1855  31.087353    32.9833    26.1635 0.0000e+00
    917.928    168.000     4.2006  31.104884    32.9883    26.1658 0.0000e+00
    920.037    169.000     4.2182  31.124296    32.9929    26.1677 0.0000e+00
    922.159    170.000     4.2200  31.128816    32.9959    26.1699 0.0000e+00
    923.990    171.000     4.1746  31.088646    32.9937    26.1728 0.0000e+00
    925.950    172.000     4.1450  31.064199    32.9942    26.1762 0.0000e+00
    928.154    173.000     4.1246  31.047322    32.9943    26.1783 0.0000e+00
    930.247    174.000     4.1260  31.051225    32.9970    26.1803 0.0000e+00
    932.304    175.000     4.1310  31.057331    32.9986    26.1811 0.0000e+00
    934.319    176.000     4.1249  31.052363    32.9984    26.1815 0.0000e+00
    936.370    177.000     4.1486  31.079064    33.0055    26.1848 0.0000e+00
    938.337    178.000     4.1815  31.115202    33.0144    26.1886 0.0000e+00
    940.264    179.000     4.1794  31.114917    33.0157    26.1898 0.0000e+00
    942.249    180.000     4.1503  31.091671    33.0170    26.1938 0.0000e+00
    944.149    181.000     4.0737  31.024953    33.0149    26.1999 0.0000e+00
    946.106    182.000     4.0333  30.991691    33.0158    26.2047 0.0000e+00
    947.919    183.000     4.0158  30.980272    33.0195    26.2093 0.0000e+00
    949.907    184.000     4.0072  30.976180    33.0228    26.2128 0.0000e+00
    951.874    185.000     4.0000  30.971571    33.0241    26.2145 0.0000e+00
    953.660    186.000     3.9930  30.966506    33.0246    26.2156 0.0000e+00
    955.613    187.000     3.9824  30.957418    33.0240    26.2162 0.0000e+00
    957.534    188.000     3.9855  30.962956    33.0269    26.2182 0.0000e+00
    959.431    189.000     3.9972  30.979000    33.0336    26.2224 0.0000e+00
    961.113    190.000     3.9826  30.968090    33.0349    26.2248 0.0000e+00
    963.101    191.000     3.9717  30.960665    33.0366    26.2273 0.0000e+00
    965.376    192.000     3.9329  30.929366    33.0382    26.2324 0.0000e+00
    967.123    193.000     3.9028  30.908842    33.0437    26.2398 0.0000e+00
    969.163    194.000     3.8892  30.903236    33.0503    26.2463 0.0000e+00
    971.095    195.000     3.8805  30.900323    33.0551    26.2510 0.0000e+00
    972.923    196.000     3.8598  30.887038    33.0598    26.2567 0.0000e+00
    974.937    197.000     3.8464  30.880714    33.0653    26.2624 0.0000e+00
    976.785    198.000     3.8405  30.879038    33.0687    26.2658 0.0000e+00
    978.700    199.000     3.8334  30.875265    33.0709    26.2682 0.0000e+00
    980.616    200.000     3.8276  30.871827    33.0722    26.2698 0.0000e+00
    982.481    201.000     3.8211  30.868070    33.0738    26.2717 0.0000e+00
    984.317    202.000     3.8142  30.864018    33.0754    26.2737 0.0000e+00
    986.393    203.000     3.8095  30.861237    33.0764    26.2749 0.0000e+00
    988.334    204.000     3.8058  30.859291    33.0773    26.2760 0.0000e+00
    990.322    205.000     3.7986  30.856443    33.0807    26.2793 0.0000e+00
    992.127    206.000     3.7882  30.853776    33.0875    26.2858 0.0000e+00
    993.997    207.000     3.7782  30.847867    33.0901    26.2888 0.0000e+00
    995.926    208.000     3.7716  30.843377    33.0909    26.2901 0.0000e+00
    997.870    209.000     3.7728  30.848107    33.0948    26.2931 0.0000e+00
   1000.015    210.000     3.7660  30.845409    33.0979    26.2963 0.0000e+00
   1001.744    211.000     3.7556  30.840473    33.1021    26.3006 0.0000e+00
   1003.542    212.000     3.7488  30.837747    33.1052    26.3037 0.0000e+00
   1005.651    213.000     3.7426  30.835533    33.1084    26.3068 0.0000e+00
   1007.478    214.000     3.7380  30.833303    33.1098    26.3084 0.0000e+00
   1009.630    215.000     3.7337  30.831040    33.1110    26.3098 0.0000e+00
   1011.611    216.000     3.7276  30.827211    33.1121    26.3112 0.0000e+00
   1013.560    217.000     3.7131  30.817470    33.1147    26.3147 0.0000e+00
   1015.543    218.000     3.6784  30.789970    33.1166    26.3196 0.0000e+00
   1017.628    219.000     3.6555  30.772337    33.1184    26.3231 0.0000e+00
   1019.750    220.000     3.6427  30.762401    33.1190    26.3249 0.0000e+00
   1021.734    221.000     3.6377  30.759384    33.1199    26.3261 0.0000e+00
   1023.747    222.000     3.6284  30.752544    33.1207    26.3276 0.0000e+00
   1025.811    223.000     3.6091  30.738057    33.1225    26.3309 0.0000e+00
   1027.769    224.000     3.5944  30.729466    33.1267    26.3356 0.0000e+00
   1029.959    225.000     3.5796  30.718811    33.1285    26.3384 0.0000e+00
   1032.147    226.000     3.5618  30.705755    33.1305    26.3417 0.0000e+00
   1034.117    227.000     3.5328  30.683045    33.1323    26.3459 0.0000e+00
   1036.168    228.000     3.5185  30.674099    33.1356    26.3499 0.0000e+00
   1038.275    229.000     3.5091  30.669117    33.1387    26.3532 0.0000e+00
   1040.299    230.000     3.5022  30.665412    33.1408    26.3555 0.0000e+00
   1042.334    231.000     3.4929  30.659861    33.1431    26.3582 0.0000e+00
   1044.330    232.000     3.4838  30.654489    33.1454    26.3609 0.0000e+00
   1046.327    233.000     3.4812  30.654414    33.1475    26.3628 0.0000e+00
   1048.317    234.000     3.4808  30.654879    33.1479    26.3632 0.0000e+00
   1050.416    235.000     3.4860  30.664694    33.1538    26.3674 0.0000e+00
   1052.650    236.000     3.4916  30.673847    33.1585    26.3707 0.0000e+00
   1054.718    237.000     3.4851  30.668699    33.1585    26.3712 0.0000e+00
   1056.710    238.000     3.4866  30.672255    33.1607    26.3728 0.0000e+00
   1058.658    239.000     3.5028  30.689556    33.1643    26.3742 0.0000e+00
   1060.918    240.000     3.5180  30.704631    33.1664    26.3744 0.0000e+00
   1063.295    241.000     3.5472  30.734476    33.1718    26.3760 0.0000e+00
   1065.370    242.000     3.5718  30.759441    33.1760    26.3770 0.0000e+00
   1067.494    243.000     3.6035  30.792187    33.1823    26.3790 0.0000e+00
   1069.568    244.000     3.5987  30.788471    33.1822    26.3794 0.0000e+00
   1071.743    245.000     3.5845  30.777006    33.1825    26.3810 0.0000e+00
   1073.566    246.000     3.5812  30.776478    33.1847    26.3830 0.0000e+00
   1075.887    247.000     3.5927  30.790700    33.1894    26.3857 0.0000e+00
   1077.881    248.000     3.5863  30.786932    33.1909    26.3875 0.0000e+00
   1079.915    249.000     3.5748  30.780069    33.1939    26.3910 0.0000e+00
   1081.754    250.000     3.5631  30.771140    33.1946    26.3927 0.0000e+00
   1083.674    251.000     3.5568  30.766205    33.1946    26.3933 0.0000e+00
   1085.905    252.000     3.5528  30.764187    33.1958    26.3946 0.0000e+00
   1087.687    253.000     3.5523  30.765425    33.1972    26.3958 0.0000e+00
   1089.697    254.000     3.5525  30.766058    33.1973    26.3958 0.0000e+00
   1091.778    255.000     3.5574  30.771956    33.1988    26.3965 0.0000e+00
   1093.933    256.000     3.5689  30.784426    33.2015    26.3976 0.0000e+00
   1095.637    257.000     3.5736  30.789701    33.2024    26.3979 0.0000e+00
   1097.576    258.000     3.5766  30.793484    33.2034    26.3984 0.0000e+00
   1099.789    259.000     3.5818  30.798719    33.2038    26.3982 0.0000e+00
   1101.793    260.000     3.5999  30.817913    33.2078    26.3996 0.0000e+00
   1103.644    261.000     3.6051  30.823187    33.2082    26.3995 0.0000e+00
   1105.655    262.000     3.6166  30.835806    33.2110    26.4007 0.0000e+00
   1107.716    263.000     3.6251  30.845027    33.2129    26.4013 0.0000e+00
   1109.678    264.000     3.6403  30.862238    33.2174    26.4034 0.0000e+00
   1111.697    265.000     3.6765  30.904086    33.2299    26.4099 0.0000e+00
   1113.910    266.000     3.7033  30.933670    33.2373    26.4132 0.0000e+00
   1115.838    267.000     3.7224  30.957503    33.2457    26.4181 0.0000e+00
   1117.794    268.000     3.7321  30.970389    33.2506    26.4211 0.0000e+00
   1120.128    269.000     3.7413  30.983781    33.2566    26.4250 0.0000e+00
   1122.078    270.000     3.7530  31.001882    33.2657    26.4311 0.0000e+00
   1124.128    271.000     3.7646  31.020051    33.2750    26.4373 0.0000e+00
   1126.362    272.000     3.7687  31.026639    33.2781    26.4394 0.0000e+00
   1131.379    273.000     3.7738  31.035343    33.2828    26.4426 0.0000e+00
   1137.471    272.000     3.7693  31.027949    33.2791    26.4401 0.0000e+00
   1140.125    271.000     3.7618  31.015595    33.2726    26.4356 0.0000e+00
   1142.101    270.000     3.7541  31.003337    33.2663    26.4314 0.0000e+00
   1144.230    269.000     3.7448  30.989342    33.2597    26.4271 0.0000e+00
   1146.197    268.000     3.7391  30.981178    33.2563    26.4249 0.0000e+00
   1148.279    267.000     3.7316  30.970466    33.2517    26.4220 0.0000e+00
   1150.434    266.000     3.7185  30.953310    33.2452    26.4181 0.0000e+00
   1153.010    265.000     3.7033  30.935478    33.2400    26.4154 0.0000e+00
   1155.757    264.000     3.6680  30.894340    33.2274    26.4088 0.0000e+00
   1158.297    263.000     3.6330  30.853954    33.2155    26.4026 0.0000e+00
   1160.876    262.000     3.6150  30.834577    33.2112    26.4009 0.0000e+00
   1163.375    261.000     3.6031  30.821815    33.2086    26.4000 0.0000e+00
   1165.829    260.000     3.5945  30.812540    33.2068    26.3994 0.0000e+00
   1167.911    259.000     3.5869  30.804497    33.2055    26.3991 0.0000e+00
   1170.092    258.000     3.5688  30.785046    33.2012    26.3974 0.0000e+00
   1172.363    257.000     3.5620  30.777827    33.2001    26.3971 0.0000e+00
   1174.646    256.000     3.5575  30.772713    33.1991    26.3968 0.0000e+00
   1176.975    255.000     3.5511  30.765427    33.1974    26.3960 0.0000e+00
   1179.301    254.000     3.5400  30.752808    33.1942    26.3945 0.0000e+00
   1181.922    253.000     3.5418  30.752945    33.1930    26.3934 0.0000e+00
   1184.731    252.000     3.5526  30.761194    33.1924    26.3919 0.0000e+00
   1187.574    251.000     3.5641  30.769419    33.1910    26.3897 0.0000e+00
   1190.344    250.000     3.5724  30.773456    33.1879    26.3865 0.0000e+00
   1193.266    249.000     3.5750  30.774056    33.1865    26.3851 0.0000e+00
   1195.446    248.000     3.5843  30.781487    33.1865    26.3842 0.0000e+00
   1198.165    247.000     3.5884  30.784348    33.1862    26.3836 0.0000e+00
   1200.494    246.000     3.5786  30.774193    33.1846    26.3832 0.0000e+00
   1203.133    245.000     3.5704  30.764966    33.1825    26.3823 0.0000e+00
   1205.674    244.000     3.6038  30.794776    33.1846    26.3808 0.0000e+00
   1208.766    243.000     3.6252  30.812372    33.1843    26.3785 0.0000e+00
   1211.689    242.000     3.5395  30.723887    33.1664    26.3724 0.0000e+00
   1214.994    241.000     3.5126  30.697021    33.1622    26.3716 0.0000e+00
   1218.154    240.000     3.4995  30.681539    33.1576    26.3692 0.0000e+00
   1221.314    239.000     3.4881  30.668296    33.1539    26.3673 0.0000e+00
   1224.334    238.000     3.4862  30.663897    33.1511    26.3652 0.0000e+00
   1227.096    237.000     3.4865  30.661910    33.1489    26.3635 0.0000e+00
   1229.755    236.000     3.4900  30.663050    33.1472    26.3618 0.0000e+00
   1232.986    235.000     3.4916  30.662943    33.1460    26.3607 0.0000e+00
   1235.910    234.000     3.4936  30.662985    33.1446    26.3593 0.0000e+00
   1239.415    233.000     3.4964  30.663515    33.1429    26.3577 0.0000e+00
   1243.049    232.000     3.5007  30.665890    33.1419    26.3565 0.0000e+00
   1246.718    231.000     3.5063  30.669166    33.1406    26.3550 0.0000e+00
   1250.394    230.000     3.5082  30.669462    33.1395    26.3540 0.0000e+00
   1253.945    229.000     3.5087  30.668726    33.1387    26.3532 0.0000e+00
   1257.311    228.000     3.5119  30.670216    33.1377    26.3522 0.0000e+00
   1260.843    227.000     3.5130  30.669023    33.1357    26.3505 0.0000e+00
   1264.243    226.000     3.5221  30.674808    33.1339    26.3482 0.0000e+00
   1267.709    225.000     3.5327  30.682128    33.1324    26.3460 0.0000e+00
   1271.487    224.000     3.5402  30.687184    33.1313    26.3444 0.0000e+00
   1275.506    223.000     3.5474  30.692152    33.1304    26.3430 0.0000e+00
   1279.552    222.000     3.5598  30.701728    33.1298    26.3414 0.0000e+00
   1283.965    221.000     3.5722  30.710324    33.1280    26.3387 0.0000e+00
   1287.952    220.000     3.5933  30.726982    33.1269    26.3359 0.0000e+00
   1292.292    219.000     3.6082  30.738801    33.1264    26.3341 0.0000e+00
   1296.174    218.000     3.6295  30.754009    33.1234    26.3297 0.0000e+00
   1300.064    217.000     3.6444  30.760298    33.1163    26.3226 0.0000e+00
   1303.968    216.000     3.6587  30.769043    33.1128    26.3184 0.0000e+00
   1307.632    215.000     3.6789  30.784877    33.1116    26.3156 0.0000e+00
   1311.522    214.000     3.7000  30.802109    33.1113    26.3132 0.0000e+00
   1315.655    213.000     3.7075  30.807742    33.1109    26.3122 0.0000e+00
   1319.844    212.000     3.7174  30.815248    33.1103    26.3108 0.0000e+00
   1323.945    211.000     3.7279  30.821882    33.1081    26.3080 0.0000e+00
   1328.268    210.000     3.7412  30.829672    33.1044    26.3038 0.0000e+00
   1332.769    209.000     3.7569  30.838543    33.0995    26.2984 0.0000e+00
   1337.249    208.000     3.7608  30.839905    33.0977    26.2966 0.0000e+00
   1341.462    207.000     3.7787  30.850169    33.0923    26.2905 0.0000e+00
   1345.812    206.000     3.7845  30.853326    33.0907    26.2887 0.0000e+00
   1349.977    205.000     3.7996  30.861833    33.0860    26.2835 0.0000e+00
   1354.477    204.000     3.8224  30.873012    33.0768    26.2739 0.0000e+00
   1358.903    203.000     3.8337  30.877392    33.0711    26.2683 0.0000e+00
   1363.429    202.000     3.8380  30.879776    33.0701    26.2671 0.0000e+00
   1368.055    201.000     3.8446  30.883784    33.0687    26.2653 0.0000e+00
   1372.757    200.000     3.8543  30.889855    33.0666    26.2627 0.0000e+00
   1377.653    199.000     3.8621  30.894759    33.0650    26.2607 0.0000e+00
   1382.088    198.000     3.8694  30.899042    33.0632    26.2586 0.0000e+00
   1386.245    197.000     3.8766  30.903287    33.0615    26.2565 0.0000e+00
   1390.614    196.000     3.8881  30.911184    33.0598    26.2540 0.0000e+00
   1394.656    195.000     3.8924  30.912334    33.0573    26.2516 0.0000e+00
   1398.664    194.000     3.8822  30.900437    33.0541    26.2500 0.0000e+00
   1402.995    193.000     3.8778  30.892603    33.0497    26.2470 0.0000e+00
   1406.696    192.000     3.8909  30.897974    33.0434    26.2407 0.0000e+00
   1411.074    191.000     3.8941  30.895236    33.0374    26.2356 0.0000e+00
   1414.745    190.000     3.8997  30.897177    33.0346    26.2328 0.0000e+00
   1418.937    189.000     3.9063  30.900643    33.0326    26.2306 0.0000e+00
   1422.586    188.000     3.9098  30.901705    33.0308    26.2288 0.0000e+00
   1426.723    187.000     3.9186  30.905109    33.0265    26.2245 0.0000e+00
   1430.661    186.000     3.9399  30.920108    33.0233    26.2198 0.0000e+00
   1435.341    185.000     3.9508  30.924488    33.0180    26.2146 0.0000e+00
   1439.680    184.000     3.9606  30.931659    33.0171    26.2129 0.0000e+00
   1443.754    183.000     3.9693  30.938057    33.0164    26.2115 0.0000e+00
   1447.874    182.000     3.9709  30.936912    33.0140    26.2094 0.0000e+00
   1451.437    181.000     3.9693  30.933035    33.0115    26.2076 0.0000e+00
   1455.766    180.000     3.9777  30.936933    33.0082    26.2041 0.0000e+00
   1459.317    179.000     3.9844  30.940919    33.0067    26.2022 0.0000e+00
   1463.557    178.000     3.9862  30.940560    33.0050    26.2007 0.0000e+00
   1467.456    177.000     3.9912  30.942584    33.0028    26.1985 0.0000e+00
   1471.491    176.000     3.9956  30.943840    33.0004    26.1961 0.0000e+00
   1475.246    175.000     4.0103  30.955631    33.0001    26.1944 0.0000e+00
   1479.485    174.000     4.0628  31.001432    33.0018    26.1905 0.0000e+00
   1483.244    173.000     4.0957  31.029745    33.0026    26.1879 0.0000e+00
   1487.341    172.000     4.1116  31.042717    33.0024    26.1861 0.0000e+00
   1491.326    171.000     4.1473  31.072296    33.0019    26.1821 0.0000e+00
   1495.203    170.000     4.1581  31.080525    33.0013    26.1805 0.0000e+00
   1499.234    169.000     4.1683  31.087902    33.0002    26.1786 0.0000e+00
   1503.116    168.000     4.1741  31.090209    32.9976    26.1760 0.0000e+00
   1506.770    167.000     4.1561  31.069075    32.9913    26.1728 0.0000e+00
   1510.965    166.000     4.1649  31.072779    32.9874    26.1688 0.0000e+00
   1514.747    165.000     4.1847  31.084981    32.9824    26.1628 0.0000e+00
   1518.507    164.000     4.1855  31.084115    32.9811    26.1617 0.0000e+00
   1522.798    163.000     4.1775  31.075194    32.9791    26.1609 0.0000e+00
   1526.486    162.000     4.1510  31.045171    32.9709    26.1571 0.0000e+00
   1530.574    161.000     4.1514  31.041458    32.9667    26.1537 0.0000e+00
   1534.547    160.000     4.1813  31.065443    32.9654    26.1497 0.0000e+00
   1538.341    159.000     4.2153  31.087007    32.9572    26.1397 0.0000e+00
   1542.463    158.000     4.2339  31.099202    32.9534    26.1347 0.0000e+00
   1546.228    157.000     4.1787  31.043211    32.9435    26.1325 0.0000e+00
   1549.990    156.000     4.1301  30.993946    32.9348    26.1305 0.0000e+00
   1553.688    155.000     4.1185  30.978367    32.9286    26.1267 0.0000e+00
   1557.421    154.000     4.1512  31.007697    32.9308    26.1252 0.0000e+00
   1561.247    153.000     4.1869  31.040055    32.9336    26.1238 0.0000e+00
   1565.120    152.000     4.1857  31.037154    32.9319    26.1226 0.0000e+00
   1569.243    151.000     4.1743  31.023469    32.9278    26.1204 0.0000e+00
   1573.254    150.000     4.1263  30.974357    32.9186    26.1180 0.0000e+00
   1577.254    149.000     4.0920  30.933641    32.9056    26.1111 0.0000e+00
   1581.335    148.000     4.1019  30.936367    32.8994    26.1052 0.0000e+00
   1585.417    147.000     4.1325  30.961563    32.8989    26.1017 0.0000e+00
   1589.537    146.000     4.1791  31.003086    32.9016    26.0992 0.0000e+00
   1593.770    145.000     4.2122  31.032363    32.9034    26.0972 0.0000e+00
   1597.989    144.000     4.2198  31.038262    32.9032    26.0963 0.0000e+00
   1602.343    143.000     4.2230  31.040238    32.9028    26.0957 0.0000e+00
   1606.657    142.000     4.2183  31.034670    32.9015    26.0951 0.0000e+00
   1610.969    141.000     4.1943  31.009952    32.8970    26.0940 0.0000e+00
   1615.370    140.000     4.1774  30.992527    32.8940    26.0933 0.0000e+00
   1619.973    139.000     4.1461  30.960789    32.8885    26.0921 0.0000e+00
   1624.331    138.000     4.1304  30.943849    32.8848    26.0907 0.0000e+00
   1628.886    137.000     4.1114  30.919096    32.8752    26.0850 0.0000e+00
   1633.586    136.000     4.1275  30.928155    32.8703    26.0795 0.0000e+00
   1637.837    135.000     4.1907  30.985521    32.8750    26.0769 0.0000e+00
   1642.654    134.000     4.2436  31.033130    32.8786    26.0743 0.0000e+00
   1647.512    133.000     4.2964  31.080434    32.8818    26.0714 0.0000e+00
   1652.132    132.000     4.3035  31.083251    32.8785    26.0681 0.0000e+00
   1657.186    131.000     4.3049  31.082533    32.8768    26.0666 0.0000e+00
   1662.231    130.000     4.3114  31.084179    32.8728    26.0627 0.0000e+00
   1667.512    129.000     4.3150  31.085140    32.8708    26.0608 0.0000e+00
   1672.335    128.000     4.3181  31.086019    32.8692    26.0593 0.0000e+00
   1677.059    127.000     4.3217  31.087038    32.8674    26.0574 0.0000e+00
   1681.909    126.000     4.3241  31.087592    32.8661    26.0562 0.0000e+00
   1686.320    125.000     4.3260  31.088078    32.8653    26.0553 0.0000e+00
   1691.158    124.000     4.3273  31.088094    32.8646    26.0546 0.0000e+00
   1695.720    123.000     4.3275  31.087535    32.8642    26.0543 0.0000e+00
   1700.591    122.000     4.3307  31.088722    32.8629    26.0529 0.0000e+00
   1705.185    121.000     4.3340  31.090239    32.8619    26.0518 0.0000e+00
   1709.890    120.000     4.3418  31.094555    32.8597    26.0492 0.0000e+00
   1714.582    119.000     4.3498  31.098335    32.8567    26.0460 0.0000e+00
   1719.122    118.000     4.3509  31.099247    32.8572    26.0463 0.0000e+00
   1724.174    117.000     4.3491  31.096332    32.8561    26.0456 0.0000e+00
   1728.870    116.000     4.3468  31.091635    32.8534    26.0437 0.0000e+00
   1734.088    115.000     4.3506  31.092380    32.8510    26.0414 0.0000e+00
   1739.518    114.000     4.3536  31.093195    32.8494    26.0399 0.0000e+00
   1744.085    113.000     4.3570  31.095225    32.8489    26.0391 0.0000e+00
   1749.106    112.000     4.3606  31.097068    32.8480    26.0380 0.0000e+00
   1753.832    111.000     4.3629  31.096915    32.8461    26.0362 0.0000e+00
   1758.648    110.000     4.3604  31.091285    32.8425    26.0336 0.0000e+00
   1763.222    109.000     4.3583  31.084717    32.8374    26.0298 0.0000e+00
   1767.782    108.000     4.3605  31.083718    32.8346    26.0273 0.0000e+00
   1772.697    107.000     4.3616  31.083359    32.8336    26.0264 0.0000e+00
   1777.601    106.000     4.3633  31.083233    32.8322    26.0252 0.0000e+00
   1782.992    105.000     4.3638  31.083031    32.8320    26.0250 0.0000e+00
   1788.697    104.000     4.3658  31.083894    32.8316    26.0244 0.0000e+00
   1794.440    103.000     4.3799  31.093143    32.8288    26.0208 0.0000e+00
   1799.768    102.000     4.3842  31.093406    32.8254    26.0176 0.0000e+00
   1803.937    101.000     4.3811  31.087960    32.8226    26.0157 0.0000e+00
   1808.417    100.000     4.3741  31.079170    32.8198    26.0142 0.0000e+00
   1812.717     99.000     4.3320  31.030450    32.8053    26.0070 0.0000e+00
   1817.555     98.000     4.3598  31.052031    32.8034    26.0026 0.0000e+00
   1821.906     97.000     4.3661  31.052794    32.7985    25.9981 0.0000e+00
   1826.924     96.000     4.3780  31.058263    32.7936    25.9930 0.0000e+00
   1831.664     95.000     4.3836  31.059017    32.7894    25.9891 0.0000e+00
   1836.523     94.000     4.3757  31.048069    32.7850    25.9864 0.0000e+00
   1841.426     93.000     4.3269  30.996849    32.7741    25.9828 0.0000e+00
   1846.277     92.000     4.3004  30.967753    32.7669    25.9798 0.0000e+00
   1851.212     91.000     4.2852  30.947199    32.7585    25.9747 0.0000e+00
   1855.648     90.000     4.2737  30.933683    32.7546    25.9727 0.0000e+00
   1860.815     89.000     4.2574  30.914358    32.7487    25.9697 0.0000e+00
   1865.679     88.000     4.2415  30.893561    32.7406    25.9649 0.0000e+00
   1871.392     87.000     4.2178  30.863780    32.7298    25.9587 0.0000e+00
   1877.109     86.000     4.2278  30.865560    32.7225    25.9519 0.0000e+00
   1882.424     85.000     4.2227  30.844528    32.7034    25.9372 0.0000e+00
   1887.973     84.000     4.2311  30.839046    32.6891    25.9251 0.0000e+00
   1893.988     83.000     4.2539  30.849321    32.6790    25.9147 0.0000e+00
   1900.276     82.000     4.2559  30.847765    32.6757    25.9119 0.0000e+00
   1906.857     81.000     4.2596  30.841885    32.6657    25.9035 0.0000e+00
   1911.718     80.000     4.2612  30.836379    32.6581    25.8974 0.0000e+00
   1916.409     79.000     4.2665  30.836538    32.6536    25.8932 0.0000e+00
   1922.762     78.000     4.2938  30.846608    32.6388    25.8787 0.0000e+00
   1929.707     77.000     4.2923  30.843211    32.6368    25.8773 0.0000e+00
   1935.568     76.000     4.3068  30.854826    32.6366    25.8756 0.0000e+00
   1941.008     75.000     4.3333  30.877126    32.6369    25.8732 0.0000e+00
   1945.930     74.000     4.3508  30.892357    32.6379    25.8722 0.0000e+00
   1950.748     73.000     4.3564  30.897881    32.6393    25.8727 0.0000e+00
   1955.332     72.000     4.3643  30.904755    32.6401    25.8725 0.0000e+00
   1960.100     71.000     4.3839  30.922605    32.6420    25.8720 0.0000e+00
   1965.720     70.000     4.3955  30.933958    32.6443    25.8726 0.0000e+00
   1971.583     69.000     4.4081  30.944631    32.6448    25.8717 0.0000e+00
   1976.557     68.000     4.4105  30.944723    32.6431    25.8701 0.0000e+00
   1980.811     67.000     4.4101  30.944090    32.6432    25.8703 0.0000e+00
   1984.673     66.000     4.4114  30.934647    32.6314    25.8608 0.0000e+00
   1988.819     65.000     4.4211  30.933301    32.6208    25.8513 0.0000e+00
   1994.701     64.000     4.4355  30.930498    32.6038    25.8363 0.0000e+00
   1999.429     63.000     4.4436  30.925990    32.5910    25.8254 0.0000e+00
   2003.707     62.000     4.4457  30.923628    32.5867    25.8217 0.0000e+00
   2007.815     61.000     4.4477  30.919931    32.5809    25.8169 0.0000e+00
   2011.247     60.000     4.4493  30.918249    32.5779    25.8144 0.0000e+00
   2014.572     59.000     4.4560  30.918580    32.5722    25.8091 0.0000e+00
   2017.588     58.000     4.4605  30.919651    32.5695    25.8065 0.0000e+00
   2020.663     57.000     4.4649  30.920896    32.5671    25.8042 0.0000e+00
   2023.711     56.000     4.4674  30.921325    32.5657    25.8028 0.0000e+00
   2026.480     55.000     4.4697  30.921637    32.5643    25.8014 0.0000e+00
   2029.706     54.000     4.4730  30.922526    32.5626    25.7997 0.0000e+00
   2032.945     53.000     4.4767  30.923916    32.5611    25.7981 0.0000e+00
   2036.215     52.000     4.4825  30.926132    32.5584    25.7954 0.0000e+00
   2039.121     51.000     4.4875  30.926545    32.5545    25.7918 0.0000e+00
   2041.929     50.000     4.4773  30.909253    32.5449    25.7852 0.0000e+00
   2044.892     49.000     4.4732  30.900209    32.5389    25.7809 0.0000e+00
   2047.475     48.000     4.4314  30.857497    32.5308    25.7789 0.0000e+00
   2050.144     47.000     4.3890  30.812217    32.5203    25.7749 0.0000e+00
   2053.077     46.000     4.3418  30.761760    32.5085    25.7703 0.0000e+00
   2055.780     45.000     4.2670  30.681180    32.4885    25.7621 0.0000e+00
   2058.584     44.000     4.2258  30.637231    32.4782    25.7581 0.0000e+00
   2061.514     43.000     4.2015  30.610512    32.4714    25.7551 0.0000e+00
   2064.213     42.000     4.1929  30.600052    32.4682    25.7534 0.0000e+00
   2067.325     41.000     4.1837  30.585121    32.4602    25.7480 0.0000e+00
   2070.143     40.000     4.1938  30.583886    32.4493    25.7383 0.0000e+00
   2073.052     39.000     4.2087  30.588992    32.4411    25.7303 0.0000e+00
   2076.326     38.000     4.1963  30.572190    32.4342    25.7260 0.0000e+00
   2079.316     37.000     4.1764  30.547308    32.4251    25.7208 0.0000e+00
   2082.502     36.000     4.1667  30.531783    32.4170    25.7153 0.0000e+00
   2085.985     35.000     4.1698  30.527320    32.4092    25.7088 0.0000e+00
   2089.058     34.000     4.1724  30.517829    32.3960    25.6981 0.0000e+00
   2092.070     33.000     4.1894  30.529050    32.3929    25.6939 0.0000e+00
   2095.288     32.000     4.2250  30.558803    32.3932    25.6906 0.0000e+00
   2098.449     31.000     4.2620  30.588119    32.3916    25.6856 0.0000e+00
   2101.529     30.000     4.3081  30.617233    32.3809    25.6724 0.0000e+00
   2105.304     29.000     4.3168  30.617733    32.3734    25.6656 0.0000e+00
   2109.089     28.000     4.3236  30.615090    32.3641    25.6575 0.0000e+00
   2113.066     27.000     4.3150  30.595008    32.3496    25.6469 0.0000e+00
   2117.031     26.000     4.3050  30.574742    32.3362    25.6373 0.0000e+00
   2120.570     25.000     4.3299  30.587358    32.3271    25.6275 0.0000e+00
   2124.549     24.000     4.3445  30.596880    32.3244    25.6238 0.0000e+00
   2128.781     23.000     4.3435  30.594306    32.3228    25.6227 0.0000e+00
   2133.780     22.000     4.4272  30.658342    32.3160    25.6087 0.0000e+00
   2139.907     21.000     4.5232  30.739246    32.3167    25.5994 0.0000e+00
   2146.020     20.000     4.5207  30.736665    32.3167    25.5996 0.0000e+00
   2151.920     19.000     4.5217  30.735681    32.3150    25.5982 0.0000e+00
   2158.059     18.000     4.5106  30.723190    32.3119    25.5968 0.0000e+00
   2165.020     17.000     4.5191  30.729517    32.3114    25.5956 0.0000e+00
   2173.906     16.000     4.4691  30.680695    32.3041    25.5949 0.0000e+00
   2182.297     15.000     4.5155  30.720961    32.3060    25.5917 0.0000e+00
   2188.879     14.000     4.5451  30.748909    32.3101    25.5918 0.0000e+00
   2194.301     13.000     4.5840  30.784573    32.3140    25.5909 0.0000e+00
   2199.499     12.000     4.6709  30.862905    32.3204    25.5868 0.0000e+00
   2205.129     11.000     4.8358  31.009330    32.3294    25.5764 0.0000e+00
   2211.183     10.000     4.8805  31.048640    32.3318    25.5734 0.0000e+00
   2216.343      9.000     5.0576  31.193057    32.3262    25.5496 0.0000e+00
   2221.204      8.000     5.3487  31.424486    32.3094    25.5037 0.0000e+00
   2225.749      7.000     5.7158  31.739300    32.3133    25.4642 0.0000e+00
   2229.799      6.000     5.9983  31.954547    32.2854    25.4083 0.0000e+00
   2234.171      5.000     5.9990  31.957245    32.2882    25.4104 0.0000e+00
   2237.888      4.000     6.0175  31.969316    32.2846    25.4053 0.0000e+00
   2249.846      3.000     6.0275  31.977024    32.2841    25.4037 0.0000e+00
   2257.552      2.000     6.0300  31.978668    32.2841    25.4034 0.0000e+00
   2261.844      1.000     6.0271  31.352176    31.5879    24.8541 0.0000e+00
