* Sea-Bird SBE 19plus Data File:
* FileName = C:\Sea-Bird Data\2014\DY1405\Casts\BON048.hex
* Software Version Seasave V 7.22.3
* Temperature SN = 4530
* Conductivity SN = 4530
* System UpLoad Time = May 16 2014 11:44:36
* Real-Time Sample Interval = 0.2500 seconds
* System UTC = May 16 2014 11:44:36
# nquan = 7                                 
# nvalues = 607                         
# units = specified
# name 0 = timeS: Time, Elapsed [seconds]
# name 1 = prdM: Pressure, Strain Gauge [db]
# name 2 = tv290C: Temperature [ITS-90, deg C]
# name 3 = c0mS/cm: Conductivity [mS/cm]
# name 4 = sal00: Salinity, Practical [PSU]
# name 5 = sigma-t00: Density [sigma-t, Kg/m^3 ]
# name 6 = flag: flag
# span 0 =    328.380,   2110.946       
# span 1 =      1.000,    304.000       
# span 2 =     3.4152,     6.1602       
# span 3 =  27.111587,  32.319205       
# span 4 =    27.0350,    33.5872       
# span 5 =    21.2798,    26.6701       
# span 6 = 0.0000e+00, 0.0000e+00       
# interval = decibars: 1                
# start_time = May 16 2014 11:44:36 [System UTC, header]
# bad_flag = -9.990e-29
# <Sensors count="3" >
#   <sensor Channel="1" >
#     <!-- Count, Temperature -->
#     <TemperatureSensor SensorID="58" >
#       <SerialNumber>4530</SerialNumber>
#       <CalibrationDate>03-Dec-13</CalibrationDate>
#       <A0>1.22471000e-003</A0>
#       <A1>2.66234600e-004</A1>
#       <A2>-3.25282000e-007</A2>
#       <A3>1.63905300e-007</A3>
#       <Slope>1.00000000</Slope>
#       <Offset>0.0000</Offset>
#     </TemperatureSensor>
#   </sensor>
#   <sensor Channel="2" >
#     <!-- Frequency 0, Conductivity -->
#     <ConductivitySensor SensorID="3" >
#       <SerialNumber>4530</SerialNumber>
#       <CalibrationDate>03-Dec-13</CalibrationDate>
#       <UseG_J>1</UseG_J>
#       <!-- Cell const and series R are applicable only for wide range sensors. -->
#       <SeriesR>0.0000</SeriesR>
#       <CellConst>2000.0000</CellConst>
#       <ConductivityType>0</ConductivityType>
#       <Coefficients equation="0" >
#         <A>0.00000000e+000</A>
#         <B>0.00000000e+000</B>
#         <C>0.00000000e+000</C>
#         <D>0.00000000e+000</D>
#         <M>0.0</M>
#         <CPcor>-9.57000000e-008</CPcor>
#       </Coefficients>
#       <Coefficients equation="1" >
#         <G>-9.84131900e-001</G>
#         <H>1.41458700e-001</H>
#         <I>-1.92288200e-004</I>
#         <J>3.59848200e-005</J>
#         <CPcor>-9.57000000e-008</CPcor>
#         <CTcor>3.2500e-006</CTcor>
#         <!-- WBOTC not applicable unless ConductivityType = 1. -->
#         <WBOTC>0.00000000e+000</WBOTC>
#       </Coefficients>
#       <Slope>1.00000000</Slope>
#       <Offset>0.00000</Offset>
#     </ConductivitySensor>
#   </sensor>
#   <sensor Channel="3" >
#     <!-- Count, Pressure, Strain Gauge -->
#     <PressureSensor SensorID="46" >
#       <SerialNumber>4530</SerialNumber>
#       <CalibrationDate>02-Dec-13</CalibrationDate>
#       <PA0>-3.35712300e-001</PA0>
#       <PA1>1.56795400e-002</PA1>
#       <PA2>-6.60390500e-010</PA2>
#       <PTEMPA0>-6.74611800e+001</PTEMPA0>
#       <PTEMPA1>5.06446900e+001</PTEMPA1>
#       <PTEMPA2>-4.65162800e-001</PTEMPA2>
#       <PTCA0>5.24503600e+005</PTCA0>
#       <PTCA1>-3.17070100e-002</PTCA1>
#       <PTCA2>-4.70494400e-002</PTCA2>
#       <PTCB0>2.49031200e+001</PTCB0>
#       <PTCB1>-5.75000000e-004</PTCB1>
#       <PTCB2>0.00000000e+000</PTCB2>
#       <Offset>0.000000</Offset>
#     </PressureSensor>
#   </sensor>
# </Sensors>
# datcnv_date = May 17 2014 01:09:26, 7.22.2 [datcnv_vars = 4]
# datcnv_in = c:\data\seacat\current\bon048.hex c:\data\seacat\current\bon048.XMLCON
# datcnv_skipover = 0
# filter_date = May 17 2014 01:09:27, 7.22.2
# filter_in = c:\data\seacat\current\bon048.cnv
# filter_low_pass_tc_A = 0.500
# filter_low_pass_tc_B = 2.000
# filter_low_pass_A_vars = prdM tv290C c0mS/cm
# filter_low_pass_B_vars =
# alignctd_date = May 17 2014 01:09:27, 7.22.2
# alignctd_in = c:\data\seacat\current\bon048.cnv
# alignctd_adv = tv290C 0.500                                                                                                                                                                                                        
# wildedit_date = May 17 2014 01:09:27, 7.22.2
# wildedit_in = c:\data\seacat\current\bon048.cnv
# wildedit_pass1_nstd = 2.0
# wildedit_pass2_nstd = 15.0
# wildedit_pass2_mindelta = 1.000e-002
# wildedit_npoint = 100
# wildedit_vars = prdM tv290C c0mS/cm
# wildedit_excl_bad_scans = yes
# binavg_date = May 17 2014 01:09:27, 7.22.2
# binavg_in = c:\data\seacat\current\bon048.cnv
# binavg_bintype = decibars
# binavg_binsize = 1
# binavg_excl_bad_scans = yes
# binavg_skipover = 0
# binavg_surface_bin = no, min = 0.000, max = 0.500, value = 0.000
# Derive_date = May 17 2014 01:09:27, 7.22.2 [derive_vars = 2]
# Derive_in = c:\data\seacat\current\bon048.cnv c:\data\seacat\current\BON048.XMLcon
# file_type = ascii
*END*
    328.380      1.000     5.8679  27.111587    27.0350    21.2798 0.0000e+00
    331.937      2.000     6.0648  32.167697    32.4621    25.5397 0.0000e+00
    336.766      3.000     6.0186  31.952304    32.2650    25.3897 0.0000e+00
    340.776      4.000     5.9356  31.863902    32.2446    25.3837 0.0000e+00
    342.591      5.000     5.9296  31.858000    32.2433    25.3833 0.0000e+00
    344.734      6.000     5.9393  31.865704    32.2422    25.3813 0.0000e+00
    346.675      7.000     5.9650  31.837192    32.1853    25.3332 0.0000e+00
    348.549      8.000     5.9556  31.821339    32.1760    25.3270 0.0000e+00
    350.434      9.000     5.9677  31.806645    32.1475    25.3031 0.0000e+00
    352.708     10.000     5.9624  31.862069    32.2141    25.3563 0.0000e+00
    354.769     11.000     5.9448  31.823734    32.1875    25.3374 0.0000e+00
    357.171     12.000     5.9079  31.832772    32.2323    25.3772 0.0000e+00
    359.271     13.000     5.8702  31.812750    32.2453    25.3920 0.0000e+00
    361.452     14.000     5.8571  31.795466    32.2379    25.3878 0.0000e+00
    363.532     15.000     5.8428  31.793681    32.2491    25.3983 0.0000e+00
    365.566     16.000     5.7567  31.812702    32.3524    25.4902 0.0000e+00
    367.405     17.000     5.2635  31.577103    32.5615    25.7129 0.0000e+00
    369.203     18.000     4.8644  31.333739    32.6722    25.8450 0.0000e+00
    371.187     19.000     4.8235  31.308408    32.6827    25.8578 0.0000e+00
    373.052     20.000     4.8124  31.298331    32.6815    25.8580 0.0000e+00
    374.845     21.000     4.7966  31.286049    32.6823    25.8604 0.0000e+00
    376.877     22.000     4.7779  31.271809    32.6838    25.8636 0.0000e+00
    379.041     23.000     4.7504  31.249817    32.6849    25.8674 0.0000e+00
    381.153     24.000     4.7288  31.232951    32.6862    25.8708 0.0000e+00
    383.268     25.000     4.7116  31.220502    32.6882    25.8742 0.0000e+00
    385.310     26.000     4.6973  31.211950    32.6919    25.8787 0.0000e+00
    387.274     27.000     4.6643  31.197462    32.7072    25.8943 0.0000e+00
    389.247     28.000     4.6382  31.193721    32.7281    25.9137 0.0000e+00
    391.139     29.000     4.6133  31.185180    32.7423    25.9276 0.0000e+00
    393.062     30.000     4.5969  31.182148    32.7545    25.9390 0.0000e+00
    394.988     31.000     4.5917  31.186554    32.7643    25.9473 0.0000e+00
    396.850     32.000     4.5857  31.190454    32.7743    25.9559 0.0000e+00
    398.837     33.000     4.5636  31.183788    32.7879    25.9691 0.0000e+00
    400.956     34.000     4.5345  31.170571    32.8009    25.9824 0.0000e+00
    402.787     35.000     4.5007  31.149280    32.8091    25.9925 0.0000e+00
    404.704     36.000     4.4809  31.136427    32.8133    25.9979 0.0000e+00
    406.808     37.000     4.4702  31.129570    32.8154    26.0007 0.0000e+00
    408.770     38.000     4.4430  31.110332    32.8195    26.0068 0.0000e+00
    410.611     39.000     4.4152  31.090625    32.8237    26.0130 0.0000e+00
    412.498     40.000     4.3990  31.083385    32.8308    26.0204 0.0000e+00
    414.554     41.000     4.3853  31.089782    32.8514    26.0382 0.0000e+00
    416.609     42.000     4.3674  31.088514    32.8673    26.0526 0.0000e+00
    418.445     43.000     4.3401  31.067470    32.8694    26.0571 0.0000e+00
    420.287     44.000     4.2932  31.028290    32.8698    26.0622 0.0000e+00
    422.215     45.000     4.2568  30.999807    32.8722    26.0679 0.0000e+00
    424.251     46.000     4.2601  31.009463    32.8797    26.0735 0.0000e+00
    426.136     47.000     4.3080  31.059435    32.8899    26.0767 0.0000e+00
    427.996     48.000     4.3872  31.145391    32.9110    26.0852 0.0000e+00
    430.014     49.000     4.4120  31.174156    32.9193    26.0893 0.0000e+00
    432.113     50.000     4.4424  31.209531    32.9298    26.0944 0.0000e+00
    434.129     51.000     4.4676  31.239753    32.9394    26.0994 0.0000e+00
    436.135     52.000     4.4686  31.244582    32.9435    26.1026 0.0000e+00
    438.182     53.000     4.4626  31.243387    32.9476    26.1064 0.0000e+00
    440.178     54.000     4.4692  31.253196    32.9519    26.1092 0.0000e+00
    442.122     55.000     4.4805  31.265762    32.9548    26.1103 0.0000e+00
    444.092     56.000     4.4855  31.273135    32.9579    26.1122 0.0000e+00
    445.964     57.000     4.4697  31.263706    32.9622    26.1173 0.0000e+00
    447.737     58.000     4.4461  31.247468    32.9663    26.1230 0.0000e+00
    449.689     59.000     4.4361  31.241013    32.9682    26.1256 0.0000e+00
    451.609     60.000     4.4319  31.238541    32.9690    26.1266 0.0000e+00
    453.413     61.000     4.4294  31.238173    32.9705    26.1281 0.0000e+00
    455.194     62.000     4.4295  31.241953    32.9743    26.1311 0.0000e+00
    457.060     63.000     4.4145  31.231368    32.9765    26.1344 0.0000e+00
    458.899     64.000     4.3610  31.181502    32.9711    26.1357 0.0000e+00
    460.621     65.000     4.3038  31.129289    32.9667    26.1381 0.0000e+00
    462.411     66.000     4.2578  31.087104    32.9628    26.1398 0.0000e+00
    464.394     67.000     4.2379  31.069019    32.9610    26.1404 0.0000e+00
    466.390     68.000     4.2788  31.113996    32.9723    26.1451 0.0000e+00
    468.396     69.000     4.2530  31.090847    32.9704    26.1463 0.0000e+00
    470.444     70.000     4.2168  31.058716    32.9685    26.1485 0.0000e+00
    472.545     71.000     4.1724  31.021185    32.9684    26.1529 0.0000e+00
    474.425     72.000     4.0870  30.943530    32.9622    26.1566 0.0000e+00
    476.237     73.000     4.0465  30.908879    32.9615    26.1601 0.0000e+00
    478.173     74.000     4.0300  30.895281    32.9615    26.1618 0.0000e+00
    480.125     75.000     4.0150  30.885454    32.9645    26.1656 0.0000e+00
    481.995     76.000     4.0049  30.880928    32.9688    26.1700 0.0000e+00
    483.862     77.000     3.9989  30.879057    32.9721    26.1733 0.0000e+00
    485.871     78.000     3.9969  30.878565    32.9730    26.1742 0.0000e+00
    487.871     79.000     3.9956  30.877937    32.9730    26.1744 0.0000e+00
    489.684     80.000     3.9934  30.876897    32.9735    26.1749 0.0000e+00
    491.593     81.000     3.9909  30.876337    32.9748    26.1763 0.0000e+00
    493.721     82.000     3.9897  30.878472    32.9780    26.1789 0.0000e+00
    495.745     83.000     3.9903  30.885873    32.9857    26.1849 0.0000e+00
    497.641     84.000     3.9886  30.890310    32.9921    26.1902 0.0000e+00
    499.660     85.000     3.9798  30.888289    32.9980    26.1958 0.0000e+00
    501.673     86.000     3.9667  30.881370    33.0025    26.2007 0.0000e+00
    503.659     87.000     3.9524  30.874816    33.0087    26.2070 0.0000e+00
    505.611     88.000     3.9450  30.870821    33.0109    26.2095 0.0000e+00
    507.402     89.000     3.9429  30.869952    33.0115    26.2101 0.0000e+00
    509.349     90.000     3.9378  30.867917    33.0137    26.2124 0.0000e+00
    511.450     91.000     3.9298  30.864523    33.0172    26.2160 0.0000e+00
    513.431     92.000     3.9197  30.860150    33.0217    26.2206 0.0000e+00
    515.397     93.000     3.9138  30.858179    33.0248    26.2236 0.0000e+00
    517.303     94.000     3.9053  30.856661    33.0310    26.2294 0.0000e+00
    519.232     95.000     3.8982  30.856229    33.0372    26.2350 0.0000e+00
    521.169     96.000     3.8948  30.856642    33.0406    26.2381 0.0000e+00
    523.120     97.000     3.8926  30.857258    33.0430    26.2402 0.0000e+00
    525.078     98.000     3.8924  30.859964    33.0459    26.2425 0.0000e+00
    527.215     99.000     3.8942  30.863814    33.0481    26.2441 0.0000e+00
    529.151    100.000     3.8933  30.864467    33.0493    26.2451 0.0000e+00
    530.942    101.000     3.8906  30.863791    33.0507    26.2465 0.0000e+00
    532.929    102.000     3.8892  30.863594    33.0513    26.2472 0.0000e+00
    534.862    103.000     3.8845  30.861220    33.0528    26.2487 0.0000e+00
    536.664    104.000     3.8809  30.859417    33.0537    26.2499 0.0000e+00
    538.584    105.000     3.8742  30.854902    33.0546    26.2512 0.0000e+00
    540.634    106.000     3.8674  30.850127    33.0553    26.2525 0.0000e+00
    542.629    107.000     3.8626  30.847988    33.0571    26.2544 0.0000e+00
    544.372    108.000     3.8578  30.846394    33.0595    26.2568 0.0000e+00
    546.309    109.000     3.8535  30.845112    33.0618    26.2590 0.0000e+00
    548.461    110.000     3.8448  30.840904    33.0651    26.2625 0.0000e+00
    550.466    111.000     3.8356  30.835929    33.0680    26.2657 0.0000e+00
    552.282    112.000     3.8327  30.834845    33.0691    26.2669 0.0000e+00
    554.239    113.000     3.8280  30.832587    33.0707    26.2685 0.0000e+00
    556.245    114.000     3.8215  30.829613    33.0732    26.2712 0.0000e+00
    558.157    115.000     3.8167  30.827796    33.0754    26.2734 0.0000e+00
    560.174    116.000     3.8108  30.825422    33.0780    26.2761 0.0000e+00
    562.193    117.000     3.8030  30.822240    33.0816    26.2797 0.0000e+00
    564.183    118.000     3.7933  30.817488    33.0853    26.2835 0.0000e+00
    566.158    119.000     3.7864  30.813314    33.0868    26.2854 0.0000e+00
    568.213    120.000     3.7785  30.808135    33.0881    26.2872 0.0000e+00
    570.329    121.000     3.7743  30.805627    33.0888    26.2882 0.0000e+00
    572.309    122.000     3.7689  30.802229    33.0898    26.2895 0.0000e+00
    574.153    123.000     3.7642  30.799694    33.0910    26.2909 0.0000e+00
    576.223    124.000     3.7613  30.798990    33.0926    26.2924 0.0000e+00
    578.348    125.000     3.7591  30.799718    33.0951    26.2947 0.0000e+00
    580.359    126.000     3.7605  30.802210    33.0961    26.2954 0.0000e+00
    582.344    127.000     3.7632  30.806140    33.0976    26.2962 0.0000e+00
    584.424    128.000     3.7622  30.807011    33.0991    26.2975 0.0000e+00
    586.510    129.000     3.7597  30.806195    33.1001    26.2986 0.0000e+00
    588.382    130.000     3.7573  30.805338    33.1010    26.2995 0.0000e+00
    590.361    131.000     3.7542  30.804314    33.1024    26.3010 0.0000e+00
    592.472    132.000     3.7514  30.803501    33.1038    26.3023 0.0000e+00
    594.479    133.000     3.7498  30.803027    33.1043    26.3029 0.0000e+00
    596.368    134.000     3.7482  30.802673    33.1050    26.3036 0.0000e+00
    598.150    135.000     3.7443  30.802162    33.1078    26.3062 0.0000e+00
    600.161    136.000     3.7336  30.798836    33.1142    26.3123 0.0000e+00
    602.161    137.000     3.7262  30.795623    33.1173    26.3155 0.0000e+00
    604.099    138.000     3.7224  30.793861    33.1186    26.3169 0.0000e+00
    606.067    139.000     3.7180  30.791243    33.1194    26.3180 0.0000e+00
    608.188    140.000     3.7157  30.790056    33.1198    26.3185 0.0000e+00
    610.251    141.000     3.7080  30.784502    33.1205    26.3198 0.0000e+00
    612.302    142.000     3.6941  30.774115    33.1217    26.3221 0.0000e+00
    614.360    143.000     3.6753  30.759625    33.1230    26.3249 0.0000e+00
    616.414    144.000     3.6613  30.749379    33.1245    26.3275 0.0000e+00
    618.524    145.000     3.6376  30.730003    33.1249    26.3301 0.0000e+00
    620.576    146.000     3.6172  30.713904    33.1259    26.3328 0.0000e+00
    622.614    147.000     3.6024  30.702674    33.1270    26.3351 0.0000e+00
    624.840    148.000     3.5883  30.691960    33.1281    26.3373 0.0000e+00
    627.085    149.000     3.5773  30.683865    33.1291    26.3391 0.0000e+00
    629.113    150.000     3.5486  30.660125    33.1294    26.3421 0.0000e+00
    631.132    151.000     3.5297  30.645280    33.1303    26.3446 0.0000e+00
    633.469    152.000     3.5206  30.638351    33.1308    26.3458 0.0000e+00
    635.769    153.000     3.5068  30.627798    33.1317    26.3478 0.0000e+00
    637.528    154.000     3.4929  30.617006    33.1324    26.3497 0.0000e+00
    639.247    155.000     3.4727  30.600572    33.1328    26.3519 0.0000e+00
    641.002    156.000     3.4619  30.592478    33.1336    26.3535 0.0000e+00
    643.033    157.000     3.4614  30.592897    33.1340    26.3540 0.0000e+00
    645.035    158.000     3.4600  30.592362    33.1343    26.3543 0.0000e+00
    646.941    159.000     3.4555  30.589384    33.1348    26.3551 0.0000e+00
    649.023    160.000     3.4618  30.599521    33.1400    26.3587 0.0000e+00
    651.309    161.000     3.4587  30.597896    33.1407    26.3595 0.0000e+00
    653.671    162.000     3.4643  30.605695    33.1438    26.3615 0.0000e+00
    655.844    163.000     3.4714  30.615393    33.1476    26.3639 0.0000e+00
    657.914    164.000     3.4597  30.606631    33.1485    26.3657 0.0000e+00
    660.098    165.000     3.4304  30.581625    33.1479    26.3679 0.0000e+00
    662.232    166.000     3.4197  30.574032    33.1492    26.3699 0.0000e+00
    664.125    167.000     3.4152  30.571071    33.1497    26.3708 0.0000e+00
    665.915    168.000     3.4172  30.574314    33.1510    26.3716 0.0000e+00
    667.730    169.000     3.4213  30.579497    33.1525    26.3724 0.0000e+00
    669.591    170.000     3.4311  30.590874    33.1557    26.3740 0.0000e+00
    671.556    171.000     3.4420  30.603384    33.1590    26.3757 0.0000e+00
    673.512    172.000     3.4543  30.617752    33.1631    26.3778 0.0000e+00
    675.518    173.000     3.4579  30.622636    33.1648    26.3788 0.0000e+00
    677.624    174.000     3.4638  30.629871    33.1669    26.3799 0.0000e+00
    679.858    175.000     3.4817  30.650313    33.1726    26.3828 0.0000e+00
    682.152    176.000     3.4946  30.664717    33.1762    26.3844 0.0000e+00
    684.257    177.000     3.4998  30.670904    33.1777    26.3852 0.0000e+00
    686.353    178.000     3.5041  30.676187    33.1792    26.3859 0.0000e+00
    688.474    179.000     3.5097  30.682823    33.1809    26.3867 0.0000e+00
    690.669    180.000     3.5198  30.693963    33.1834    26.3878 0.0000e+00
    692.706    181.000     3.5279  30.702918    33.1853    26.3886 0.0000e+00
    694.733    182.000     3.5344  30.710587    33.1873    26.3895 0.0000e+00
    696.893    183.000     3.5417  30.718977    33.1894    26.3905 0.0000e+00
    698.896    184.000     3.5717  30.752566    33.1984    26.3949 0.0000e+00
    700.878    185.000     3.5939  30.775786    33.2030    26.3964 0.0000e+00
    702.884    186.000     3.6028  30.784893    33.2042    26.3966 0.0000e+00
    705.001    187.000     3.6072  30.789939    33.2053    26.3970 0.0000e+00
    707.103    188.000     3.6095  30.792983    33.2060    26.3973 0.0000e+00
    709.120    189.000     3.6117  30.795883    33.2067    26.3977 0.0000e+00
    711.112    190.000     3.6157  30.800730    33.2079    26.3982 0.0000e+00
    713.193    191.000     3.6237  30.811649    33.2123    26.4009 0.0000e+00
    715.194    192.000     3.6308  30.820929    33.2156    26.4029 0.0000e+00
    717.238    193.000     3.6415  30.834291    33.2201    26.4055 0.0000e+00
    719.340    194.000     3.6575  30.853496    33.2261    26.4088 0.0000e+00
    721.403    195.000     3.6652  30.863182    33.2293    26.4106 0.0000e+00
    723.304    196.000     3.6721  30.872200    33.2325    26.4124 0.0000e+00
    725.153    197.000     3.6880  30.892149    33.2396    26.4165 0.0000e+00
    727.000    198.000     3.6993  30.906322    33.2444    26.4193 0.0000e+00
    728.906    199.000     3.7083  30.917607    33.2482    26.4214 0.0000e+00
    730.815    200.000     3.7219  30.934921    33.2544    26.4251 0.0000e+00
    732.574    201.000     3.7307  30.946987    33.2593    26.4281 0.0000e+00
    734.336    202.000     3.7361  30.955865    33.2638    26.4312 0.0000e+00
    736.196    203.000     3.7416  30.963975    33.2673    26.4334 0.0000e+00
    738.122    204.000     3.7455  30.969180    33.2690    26.4344 0.0000e+00
    739.852    205.000     3.7597  30.988196    33.2766    26.4391 0.0000e+00
    741.587    206.000     3.7822  31.017889    33.2885    26.4463 0.0000e+00
    743.475    207.000     3.7904  31.028398    33.2921    26.4484 0.0000e+00
    745.385    208.000     3.7954  31.035827    33.2953    26.4505 0.0000e+00
    747.198    209.000     3.8002  31.043457    33.2990    26.4529 0.0000e+00
    749.133    210.000     3.8070  31.052635    33.3024    26.4550 0.0000e+00
    751.187    211.000     3.8111  31.058042    33.3041    26.4560 0.0000e+00
    753.211    212.000     3.8140  31.062425    33.3059    26.4571 0.0000e+00
    755.033    213.000     3.8206  31.072035    33.3100    26.4597 0.0000e+00
    756.960    214.000     3.8248  31.079809    33.3145    26.4628 0.0000e+00
    758.954    215.000     3.8241  31.083945    33.3196    26.4670 0.0000e+00
    760.988    216.000     3.8217  31.084782    33.3225    26.4695 0.0000e+00
    763.048    217.000     3.8263  31.092444    33.3264    26.4722 0.0000e+00
    764.979    218.000     3.8338  31.102167    33.3297    26.4741 0.0000e+00
    766.958    219.000     3.8368  31.106211    33.3310    26.4748 0.0000e+00
    768.752    220.000     3.8398  31.110729    33.3327    26.4759 0.0000e+00
    770.433    221.000     3.8474  31.122770    33.3388    26.4799 0.0000e+00
    772.222    222.000     3.8548  31.136001    33.3464    26.4853 0.0000e+00
    774.116    223.000     3.8569  31.139809    33.3482    26.4866 0.0000e+00
    775.940    224.000     3.8577  31.141390    33.3488    26.4869 0.0000e+00
    777.598    225.000     3.8586  31.143110    33.3494    26.4873 0.0000e+00
    779.218    226.000     3.8593  31.144704    33.3500    26.4877 0.0000e+00
    780.952    227.000     3.8602  31.146744    33.3510    26.4884 0.0000e+00
    782.616    228.000     3.8610  31.148631    33.3519    26.4891 0.0000e+00
    784.308    229.000     3.8619  31.150416    33.3526    26.4895 0.0000e+00
    786.151    230.000     3.8636  31.153914    33.3545    26.4909 0.0000e+00
    787.876    231.000     3.8650  31.156891    33.3561    26.4920 0.0000e+00
    789.701    232.000     3.8661  31.159531    33.3576    26.4930 0.0000e+00
    791.509    233.000     3.8680  31.165960    33.3627    26.4970 0.0000e+00
    793.354    234.000     3.8698  31.173069    33.3688    26.5016 0.0000e+00
    795.431    235.000     3.8694  31.175491    33.3715    26.5039 0.0000e+00
    797.491    236.000     3.8689  31.177290    33.3737    26.5056 0.0000e+00
    799.332    237.000     3.8699  31.181799    33.3775    26.5085 0.0000e+00
    801.272    238.000     3.8737  31.189393    33.3821    26.5118 0.0000e+00
    803.086    239.000     3.8756  31.192744    33.3836    26.5128 0.0000e+00
    804.933    240.000     3.8759  31.193655    33.3838    26.5130 0.0000e+00
    806.807    241.000     3.8765  31.195224    33.3846    26.5135 0.0000e+00
    808.597    242.000     3.8769  31.196511    33.3852    26.5139 0.0000e+00
    810.313    243.000     3.8777  31.198495    33.3862    26.5147 0.0000e+00
    812.028    244.000     3.8788  31.201774    33.3884    26.5163 0.0000e+00
    813.801    245.000     3.8796  31.204387    33.3902    26.5177 0.0000e+00
    815.569    246.000     3.8807  31.208181    33.3930    26.5198 0.0000e+00
    817.413    247.000     3.8816  31.213012    33.3973    26.5231 0.0000e+00
    819.264    248.000     3.8826  31.219049    33.4029    26.5275 0.0000e+00
    820.999    249.000     3.8831  31.222171    33.4056    26.5296 0.0000e+00
    822.679    250.000     3.8835  31.225116    33.4082    26.5316 0.0000e+00
    824.480    251.000     3.8842  31.229440    33.4120    26.5346 0.0000e+00
    826.251    252.000     3.8850  31.233614    33.4157    26.5374 0.0000e+00
    827.887    253.000     3.8866  31.238857    33.4197    26.5405 0.0000e+00
    829.604    254.000     3.8890  31.244119    33.4230    26.5428 0.0000e+00
    831.548    255.000     3.8911  31.247999    33.4249    26.5442 0.0000e+00
    833.327    256.000     3.8933  31.252450    33.4274    26.5459 0.0000e+00
    835.026    257.000     3.8964  31.260902    33.4337    26.5507 0.0000e+00
    836.694    258.000     3.8988  31.268425    33.4397    26.5551 0.0000e+00
    838.401    259.000     3.9001  31.272440    33.4426    26.5573 0.0000e+00
    840.206    260.000     3.9010  31.275896    33.4452    26.5594 0.0000e+00
    841.987    261.000     3.9028  31.281957    33.4501    26.5630 0.0000e+00
    843.739    262.000     3.9046  31.288042    33.4549    26.5667 0.0000e+00
    845.595    263.000     3.9054  31.291540    33.4577    26.5688 0.0000e+00
    847.414    264.000     3.9063  31.294202    33.4594    26.5701 0.0000e+00
    849.256    265.000     3.9073  31.296805    33.4610    26.5712 0.0000e+00
    851.029    266.000     3.9079  31.299455    33.4630    26.5728 0.0000e+00
    852.766    267.000     3.9083  31.301918    33.4650    26.5743 0.0000e+00
    854.524    268.000     3.9083  31.303815    33.4667    26.5757 0.0000e+00
    856.327    269.000     3.9084  31.305424    33.4680    26.5767 0.0000e+00
    858.284    270.000     3.9089  31.307939    33.4699    26.5782 0.0000e+00
    860.174    271.000     3.9096  31.311031    33.4723    26.5801 0.0000e+00
    861.823    272.000     3.9113  31.317019    33.4772    26.5837 0.0000e+00
    863.435    273.000     3.9129  31.322267    33.4812    26.5868 0.0000e+00
    865.159    274.000     3.9136  31.324886    33.4831    26.5882 0.0000e+00
    867.105    275.000     3.9141  31.327054    33.4846    26.5894 0.0000e+00
    868.895    276.000     3.9144  31.328292    33.4853    26.5899 0.0000e+00
    870.525    277.000     3.9151  31.331292    33.4876    26.5916 0.0000e+00
    872.229    278.000     3.9159  31.335609    33.4914    26.5946 0.0000e+00
    873.938    279.000     3.9168  31.340820    33.4961    26.5982 0.0000e+00
    875.696    280.000     3.9185  31.349544    33.5042    26.6045 0.0000e+00
    877.451    281.000     3.9194  31.353921    33.5079    26.6074 0.0000e+00
    879.193    282.000     3.9197  31.356513    33.5101    26.6091 0.0000e+00
    881.013    283.000     3.9203  31.361306    33.5147    26.6127 0.0000e+00
    882.807    284.000     3.9213  31.367510    33.5205    26.6172 0.0000e+00
    884.491    285.000     3.9219  31.371698    33.5243    26.6202 0.0000e+00
    886.312    286.000     3.9223  31.374562    33.5268    26.6221 0.0000e+00
    888.260    287.000     3.9225  31.377016    33.5289    26.6238 0.0000e+00
    890.005    288.000     3.9227  31.381197    33.5332    26.6271 0.0000e+00
    891.617    289.000     3.9228  31.389162    33.5420    26.6341 0.0000e+00
    893.292    290.000     3.9229  31.394102    33.5472    26.6383 0.0000e+00
    895.115    291.000     3.9230  31.395553    33.5483    26.6391 0.0000e+00
    897.032    292.000     3.9232  31.397433    33.5498    26.6403 0.0000e+00
    898.838    293.000     3.9235  31.399682    33.5516    26.6417 0.0000e+00
    900.696    294.000     3.9235  31.400352    33.5519    26.6420 0.0000e+00
    902.639    295.000     3.9237  31.402805    33.5541    26.6437 0.0000e+00
    904.505    296.000     3.9244  31.410237    33.5616    26.6496 0.0000e+00
    906.310    297.000     3.9246  31.413485    33.5648    26.6521 0.0000e+00
    908.214    298.000     3.9250  31.416842    33.5678    26.6544 0.0000e+00
    910.136    299.000     3.9251  31.420482    33.5715    26.6574 0.0000e+00
    912.038    300.000     3.9254  31.424828    33.5758    26.6608 0.0000e+00
    913.828    301.000     3.9247  31.427698    33.5794    26.6637 0.0000e+00
    915.540    302.000     3.9230  31.429765    33.5831    26.6668 0.0000e+00
    917.334    303.000     3.9224  31.431521    33.5852    26.6686 0.0000e+00
    924.316    304.000     3.9222  31.433422    33.5872    26.6701 0.0000e+00
    931.005    303.000     3.9223  31.431830    33.5857    26.6690 0.0000e+00
    933.393    302.000     3.9226  31.430329    33.5841    26.6677 0.0000e+00
    935.820    301.000     3.9238  31.428204    33.5809    26.6650 0.0000e+00
    938.218    300.000     3.9251  31.425872    33.5773    26.6620 0.0000e+00
    940.693    299.000     3.9251  31.421870    33.5731    26.6587 0.0000e+00
    943.032    298.000     3.9250  31.418168    33.5694    26.6557 0.0000e+00
    945.353    297.000     3.9248  31.414546    33.5658    26.6529 0.0000e+00
    947.969    296.000     3.9247  31.411882    33.5633    26.6509 0.0000e+00
    950.759    295.000     3.9240  31.404893    33.5562    26.6454 0.0000e+00
    953.360    294.000     3.9233  31.399665    33.5513    26.6415 0.0000e+00
    956.018    293.000     3.9232  31.398176    33.5502    26.6406 0.0000e+00
    958.851    292.000     3.9232  31.397017    33.5493    26.6399 0.0000e+00
    961.577    291.000     3.9231  31.395393    33.5480    26.6389 0.0000e+00
    964.235    290.000     3.9230  31.394282    33.5473    26.6384 0.0000e+00
    967.012    289.000     3.9228  31.389436    33.5423    26.6344 0.0000e+00
    969.605    288.000     3.9229  31.381528    33.5334    26.6273 0.0000e+00
    972.444    287.000     3.9229  31.377872    33.5296    26.6242 0.0000e+00
    974.821    286.000     3.9228  31.375831    33.5278    26.6228 0.0000e+00
    977.445    285.000     3.9225  31.373851    33.5262    26.6216 0.0000e+00
    980.251    284.000     3.9218  31.369482    33.5223    26.6186 0.0000e+00
    982.545    283.000     3.9207  31.362170    33.5153    26.6131 0.0000e+00
    985.031    282.000     3.9198  31.355829    33.5092    26.6084 0.0000e+00
    987.940    281.000     3.9195  31.353955    33.5078    26.6073 0.0000e+00
    990.299    280.000     3.9194  31.352912    33.5072    26.6068 0.0000e+00
    992.675    279.000     3.9186  31.348667    33.5035    26.6040 0.0000e+00
    995.817    278.000     3.9166  31.338779    33.4944    26.5969 0.0000e+00
    998.521    277.000     3.9156  31.333731    33.4900    26.5935 0.0000e+00
   1001.255    276.000     3.9146  31.330126    33.4872    26.5914 0.0000e+00
   1004.239    275.000     3.9141  31.327235    33.4848    26.5896 0.0000e+00
   1007.030    274.000     3.9139  31.325162    33.4831    26.5882 0.0000e+00
   1009.509    273.000     3.9136  31.323829    33.4824    26.5876 0.0000e+00
   1012.088    272.000     3.9127  31.320386    33.4797    26.5856 0.0000e+00
   1015.037    271.000     3.9122  31.318304    33.4783    26.5845 0.0000e+00
   1017.443    270.000     3.9113  31.315261    33.4761    26.5829 0.0000e+00
   1019.880    269.000     3.9099  31.310285    33.4722    26.5799 0.0000e+00
   1022.776    268.000     3.9093  31.307643    33.4702    26.5784 0.0000e+00
   1025.276    267.000     3.9093  31.306323    33.4692    26.5775 0.0000e+00
   1027.893    266.000     3.9094  31.304935    33.4679    26.5766 0.0000e+00
   1030.870    265.000     3.9088  31.301916    33.4655    26.5747 0.0000e+00
   1033.583    264.000     3.9079  31.298697    33.4631    26.5729 0.0000e+00
   1036.304    263.000     3.9072  31.296256    33.4615    26.5716 0.0000e+00
   1039.104    262.000     3.9059  31.292119    33.4584    26.5693 0.0000e+00
   1041.974    261.000     3.9049  31.288155    33.4553    26.5669 0.0000e+00
   1044.715    260.000     3.9046  31.285635    33.4531    26.5652 0.0000e+00
   1047.555    259.000     3.9034  31.282173    33.4508    26.5635 0.0000e+00
   1050.317    258.000     3.9018  31.276804    33.4466    26.5603 0.0000e+00
   1053.052    257.000     3.8995  31.269416    33.4407    26.5559 0.0000e+00
   1056.028    256.000     3.8961  31.258489    33.4317    26.5491 0.0000e+00
   1059.068    255.000     3.8925  31.248346    33.4239    26.5432 0.0000e+00
   1061.479    254.000     3.8902  31.243571    33.4211    26.5412 0.0000e+00
   1064.173    253.000     3.8878  31.237860    33.4173    26.5384 0.0000e+00
   1066.997    252.000     3.8873  31.235894    33.4160    26.5375 0.0000e+00
   1069.539    251.000     3.8869  31.233560    33.4142    26.5360 0.0000e+00
   1072.096    250.000     3.8845  31.224286    33.4062    26.5299 0.0000e+00
   1074.833    249.000     3.8824  31.214654    33.3974    26.5231 0.0000e+00
   1077.516    248.000     3.8818  31.211679    33.3950    26.5213 0.0000e+00
   1080.177    247.000     3.8814  31.209903    33.3938    26.5204 0.0000e+00
   1082.834    246.000     3.8801  31.206459    33.3916    26.5187 0.0000e+00
   1085.658    245.000     3.8778  31.201066    33.3881    26.5162 0.0000e+00
   1088.288    244.000     3.8768  31.198352    33.3864    26.5149 0.0000e+00
   1091.084    243.000     3.8758  31.195923    33.3851    26.5140 0.0000e+00
   1093.896    242.000     3.8734  31.191475    33.3828    26.5124 0.0000e+00
   1096.658    241.000     3.8713  31.188332    33.3817    26.5117 0.0000e+00
   1099.319    240.000     3.8699  31.185868    33.3807    26.5111 0.0000e+00
   1102.097    239.000     3.8665  31.178874    33.3764    26.5080 0.0000e+00
   1104.762    238.000     3.8661  31.176573    33.3746    26.5066 0.0000e+00
   1107.466    237.000     3.8673  31.175855    33.3731    26.5053 0.0000e+00
   1110.169    236.000     3.8681  31.174270    33.3709    26.5035 0.0000e+00
   1112.863    235.000     3.8684  31.173053    33.3697    26.5025 0.0000e+00
   1115.589    234.000     3.8697  31.172547    33.3683    26.5012 0.0000e+00
   1118.396    233.000     3.8700  31.170989    33.3666    26.4999 0.0000e+00
   1121.160    232.000     3.8674  31.163289    33.3607    26.4954 0.0000e+00
   1123.972    231.000     3.8640  31.155483    33.3554    26.4916 0.0000e+00
   1126.561    230.000     3.8633  31.153953    33.3548    26.4912 0.0000e+00
   1129.337    229.000     3.8630  31.153061    33.3546    26.4910 0.0000e+00
   1132.109    228.000     3.8625  31.151802    33.3542    26.4907 0.0000e+00
   1134.716    227.000     3.8621  31.150739    33.3538    26.4905 0.0000e+00
   1137.285    226.000     3.8612  31.148928    33.3531    26.4900 0.0000e+00
   1140.337    225.000     3.8607  31.147935    33.3530    26.4899 0.0000e+00
   1143.571    224.000     3.8591  31.145442    33.3522    26.4894 0.0000e+00
   1146.906    223.000     3.8518  31.135232    33.3480    26.4869 0.0000e+00
   1150.001    222.000     3.8386  31.115738    33.3389    26.4809 0.0000e+00
   1153.021    221.000     3.8323  31.105914    33.3341    26.4778 0.0000e+00
   1156.016    220.000     3.8242  31.093463    33.3281    26.4738 0.0000e+00
   1159.271    219.000     3.8171  31.084515    33.3253    26.4722 0.0000e+00
   1162.016    218.000     3.8171  31.081977    33.3228    26.4702 0.0000e+00
   1164.931    217.000     3.8193  31.080744    33.3196    26.4675 0.0000e+00
   1168.028    216.000     3.8222  31.077674    33.3135    26.4623 0.0000e+00
   1171.170    215.000     3.8128  31.063416    33.3067    26.4578 0.0000e+00
   1174.119    214.000     3.8017  31.049671    33.3022    26.4553 0.0000e+00
   1177.323    213.000     3.7978  31.044696    33.3008    26.4546 0.0000e+00
   1180.569    212.000     3.7938  31.039339    33.2990    26.4536 0.0000e+00
   1184.109    211.000     3.7887  31.032768    33.2969    26.4524 0.0000e+00
   1187.628    210.000     3.7838  31.026662    33.2952    26.4515 0.0000e+00
   1191.350    209.000     3.7768  31.017907    33.2924    26.4500 0.0000e+00
   1195.091    208.000     3.7644  31.000606    33.2850    26.4453 0.0000e+00
   1198.566    207.000     3.7508  30.980560    33.2756    26.4391 0.0000e+00
   1201.893    206.000     3.7437  30.969480    33.2702    26.4355 0.0000e+00
   1206.035    205.000     3.7367  30.959072    33.2654    26.4324 0.0000e+00
   1209.342    204.000     3.7329  30.953976    33.2638    26.4314 0.0000e+00
   1213.637    203.000     3.7272  30.945432    33.2599    26.4289 0.0000e+00
   1217.310    202.000     3.7128  30.924978    33.2508    26.4231 0.0000e+00
   1222.426    201.000     3.7027  30.911148    33.2451    26.4195 0.0000e+00
   1227.501    200.000     3.6988  30.904695    33.2419    26.4174 0.0000e+00
   1232.255    199.000     3.6917  30.894435    33.2375    26.4145 0.0000e+00
   1235.873    198.000     3.6854  30.886148    33.2345    26.4128 0.0000e+00
   1239.975    197.000     3.6776  30.876372    33.2314    26.4110 0.0000e+00
   1244.422    196.000     3.6665  30.863410    33.2277    26.4092 0.0000e+00
   1250.396    195.000     3.6561  30.851483    33.2246    26.4077 0.0000e+00
   1255.583    194.000     3.6517  30.846175    33.2233    26.4071 0.0000e+00
   1260.643    193.000     3.6350  30.827032    33.2180    26.4045 0.0000e+00
   1265.486    192.000     3.6132  30.803471    33.2127    26.4023 0.0000e+00
   1270.438    191.000     3.6008  30.789275    33.2089    26.4004 0.0000e+00
   1275.368    190.000     3.5894  30.776525    33.2058    26.3991 0.0000e+00
   1279.991    189.000     3.5899  30.776264    33.2055    26.3988 0.0000e+00
   1285.001    188.000     3.5904  30.776120    33.2054    26.3986 0.0000e+00
   1289.462    187.000     3.5920  30.776798    33.2051    26.3982 0.0000e+00
   1294.281    186.000     3.5906  30.774596    33.2044    26.3978 0.0000e+00
   1298.743    185.000     3.5823  30.765213    33.2022    26.3969 0.0000e+00
   1303.047    184.000     3.5783  30.760152    33.2007    26.3961 0.0000e+00
   1307.721    183.000     3.5799  30.760901    33.2005    26.3958 0.0000e+00
   1312.421    182.000     3.5815  30.760755    33.1992    26.3946 0.0000e+00
   1317.743    181.000     3.5632  30.740483    33.1942    26.3923 0.0000e+00
   1322.809    180.000     3.5358  30.710355    33.1866    26.3889 0.0000e+00
   1328.191    179.000     3.5224  30.694838    33.1823    26.3867 0.0000e+00
   1333.374    178.000     3.5094  30.680546    33.1790    26.3853 0.0000e+00
   1338.759    177.000     3.4911  30.659941    33.1735    26.3826 0.0000e+00
   1343.377    176.000     3.4823  30.649866    33.1709    26.3814 0.0000e+00
   1348.108    175.000     3.4810  30.646808    33.1691    26.3801 0.0000e+00
   1352.965    174.000     3.4855  30.649811    33.1687    26.3793 0.0000e+00
   1359.298    173.000     3.4880  30.650110    33.1670    26.3777 0.0000e+00
   1365.136    172.000     3.4839  30.643762    33.1641    26.3758 0.0000e+00
   1370.768    171.000     3.4598  30.619105    33.1597    26.3745 0.0000e+00
   1376.168    170.000     3.4514  30.609584    33.1574    26.3735 0.0000e+00
   1381.737    169.000     3.4444  30.602652    33.1567    26.3736 0.0000e+00
   1387.985    168.000     3.4345  30.591943    33.1545    26.3728 0.0000e+00
   1394.052    167.000     3.4350  30.591054    33.1535    26.3719 0.0000e+00
   1401.081    166.000     3.4416  30.595803    33.1530    26.3709 0.0000e+00
   1408.464    165.000     3.4407  30.592474    33.1504    26.3689 0.0000e+00
   1415.779    164.000     3.4411  30.590657    33.1484    26.3673 0.0000e+00
   1422.297    163.000     3.4600  30.606333    33.1484    26.3655 0.0000e+00
   1428.457    162.000     3.4669  30.611193    33.1477    26.3644 0.0000e+00
   1433.957    161.000     3.4781  30.619620    33.1469    26.3627 0.0000e+00
   1439.002    160.000     3.4820  30.621020    33.1451    26.3609 0.0000e+00
   1444.264    159.000     3.4825  30.619365    33.1432    26.3593 0.0000e+00
   1448.816    158.000     3.4725  30.607133    33.1393    26.3571 0.0000e+00
   1452.680    157.000     3.4764  30.608215    33.1371    26.3550 0.0000e+00
   1456.468    156.000     3.4830  30.612027    33.1355    26.3531 0.0000e+00
   1460.287    155.000     3.4941  30.620728    33.1351    26.3518 0.0000e+00
   1463.834    154.000     3.5092  30.632410    33.1342    26.3496 0.0000e+00
   1467.434    153.000     3.5168  30.636117    33.1315    26.3467 0.0000e+00
   1471.503    152.000     3.5131  30.630169    33.1286    26.3448 0.0000e+00
   1475.214    151.000     3.5167  30.632388    33.1282    26.3441 0.0000e+00
   1479.606    150.000     3.5255  30.639303    33.1280    26.3431 0.0000e+00
   1483.899    149.000     3.5318  30.643964    33.1277    26.3423 0.0000e+00
   1487.629    148.000     3.5354  30.646446    33.1275    26.3418 0.0000e+00
   1491.107    147.000     3.5419  30.651158    33.1271    26.3409 0.0000e+00
   1494.733    146.000     3.5554  30.662118    33.1269    26.3395 0.0000e+00
   1497.928    145.000     3.5788  30.681784    33.1272    26.3375 0.0000e+00
   1501.112    144.000     3.6086  30.707081    33.1276    26.3350 0.0000e+00
   1504.379    143.000     3.6524  30.744514    33.1282    26.3313 0.0000e+00
   1507.686    142.000     3.6747  30.762897    33.1280    26.3290 0.0000e+00
   1510.477    141.000     3.6785  30.765759    33.1281    26.3287 0.0000e+00
   1514.108    140.000     3.6879  30.772778    33.1274    26.3273 0.0000e+00
   1517.312    139.000     3.7112  30.789922    33.1247    26.3229 0.0000e+00
   1521.346    138.000     3.7234  30.797698    33.1221    26.3196 0.0000e+00
   1525.139    137.000     3.7249  30.797396    33.1208    26.3184 0.0000e+00
   1528.260    136.000     3.7291  30.797866    33.1176    26.3155 0.0000e+00
   1531.422    135.000     3.7358  30.799887    33.1137    26.3117 0.0000e+00
   1534.720    134.000     3.7385  30.800488    33.1122    26.3103 0.0000e+00
   1537.788    133.000     3.7391  30.800281    33.1119    26.3100 0.0000e+00
   1541.303    132.000     3.7400  30.799982    33.1111    26.3093 0.0000e+00
   1545.039    131.000     3.7407  30.799451    33.1103    26.3086 0.0000e+00
   1549.314    130.000     3.7415  30.798879    33.1094    26.3077 0.0000e+00
   1552.930    129.000     3.7440  30.797810    33.1061    26.3049 0.0000e+00
   1556.100    128.000     3.7461  30.796774    33.1032    26.3024 0.0000e+00
   1559.105    127.000     3.7499  30.797052    33.1002    26.2996 0.0000e+00
   1562.892    126.000     3.7546  30.797879    33.0970    26.2966 0.0000e+00
   1566.852    125.000     3.7600  30.799486    33.0939    26.2937 0.0000e+00
   1570.949    124.000     3.7692  30.803432    33.0898    26.2895 0.0000e+00
   1574.944    123.000     3.7742  30.806951    33.0895    26.2887 0.0000e+00
   1578.734    122.000     3.7789  30.810350    33.0893    26.2881 0.0000e+00
   1582.446    121.000     3.7886  30.815786    33.0864    26.2849 0.0000e+00
   1586.388    120.000     3.7962  30.819644    33.0838    26.2821 0.0000e+00
   1590.183    119.000     3.8042  30.822846    33.0801    26.2783 0.0000e+00
   1594.148    118.000     3.8058  30.822831    33.0790    26.2773 0.0000e+00
   1598.221    117.000     3.8068  30.822610    33.0782    26.2766 0.0000e+00
   1601.904    116.000     3.8081  30.822603    33.0774    26.2758 0.0000e+00
   1606.381    115.000     3.8107  30.823254    33.0761    26.2745 0.0000e+00
   1610.522    114.000     3.8139  30.824169    33.0744    26.2729 0.0000e+00
   1614.474    113.000     3.8159  30.824783    33.0737    26.2721 0.0000e+00
   1618.927    112.000     3.8155  30.824143    33.0738    26.2723 0.0000e+00
   1623.117    111.000     3.8158  30.823916    33.0738    26.2722 0.0000e+00
   1627.363    110.000     3.8160  30.823513    33.0736    26.2721 0.0000e+00
   1631.961    109.000     3.8176  30.823586    33.0726    26.2711 0.0000e+00
   1636.611    108.000     3.8201  30.824143    33.0713    26.2698 0.0000e+00
   1641.186    107.000     3.8223  30.824636    33.0702    26.2687 0.0000e+00
   1645.734    106.000     3.8235  30.824779    33.0696    26.2682 0.0000e+00
   1650.268    105.000     3.8252  30.825539    33.0694    26.2678 0.0000e+00
   1654.816    104.000     3.8276  30.826424    33.0685    26.2668 0.0000e+00
   1659.099    103.000     3.8333  30.828882    33.0662    26.2644 0.0000e+00
   1663.671    102.000     3.8391  30.831254    33.0636    26.2619 0.0000e+00
   1668.109    101.000     3.8423  30.832526    33.0624    26.2606 0.0000e+00
   1672.477    100.000     3.8520  30.836951    33.0584    26.2564 0.0000e+00
   1677.151     99.000     3.8653  30.842428    33.0520    26.2500 0.0000e+00
   1681.175     98.000     3.8681  30.843019    33.0504    26.2485 0.0000e+00
   1685.763     97.000     3.8718  30.844336    33.0487    26.2468 0.0000e+00
   1689.915     96.000     3.8879  30.853041    33.0433    26.2409 0.0000e+00
   1694.090     95.000     3.8938  30.855373    33.0406    26.2382 0.0000e+00
   1698.575     94.000     3.8976  30.855065    33.0369    26.2349 0.0000e+00
   1703.100     93.000     3.9071  30.858641    33.0321    26.2301 0.0000e+00
   1707.709     92.000     3.9174  30.860886    33.0249    26.2233 0.0000e+00
   1712.150     91.000     3.9243  30.862965    33.0209    26.2195 0.0000e+00
   1716.477     90.000     3.9399  30.870959    33.0152    26.2134 0.0000e+00
   1721.175     89.000     3.9542  30.881172    33.0133    26.2105 0.0000e+00
   1725.308     88.000     3.9590  30.883131    33.0113    26.2085 0.0000e+00
   1730.017     87.000     3.9558  30.874528    33.0049    26.2037 0.0000e+00
   1734.490     86.000     3.9632  30.877667    33.0017    26.2004 0.0000e+00
   1738.952     85.000     3.9743  30.883814    32.9983    26.1966 0.0000e+00
   1743.477     84.000     3.9862  30.892520    32.9971    26.1945 0.0000e+00
   1747.644     83.000     3.9897  30.892283    32.9938    26.1915 0.0000e+00
   1751.814     82.000     3.9887  30.887176    32.9893    26.1880 0.0000e+00
   1755.746     81.000     3.9938  30.886544    32.9840    26.1832 0.0000e+00
   1759.902     80.000     3.9938  30.883659    32.9811    26.1809 0.0000e+00
   1763.663     79.000     3.9987  30.884086    32.9772    26.1773 0.0000e+00
   1767.740     78.000     4.0018  30.884092    32.9746    26.1750 0.0000e+00
   1771.515     77.000     4.0083  30.885073    32.9697    26.1705 0.0000e+00
   1775.353     76.000     4.0097  30.883835    32.9674    26.1685 0.0000e+00
   1779.029     75.000     4.0098  30.882769    32.9665    26.1678 0.0000e+00
   1782.683     74.000     4.0107  30.881169    32.9643    26.1659 0.0000e+00
   1786.035     73.000     4.0130  30.878963    32.9599    26.1622 0.0000e+00
   1789.477     72.000     4.0155  30.878103    32.9569    26.1595 0.0000e+00
   1792.988     71.000     4.0203  30.878118    32.9526    26.1556 0.0000e+00
   1796.551     70.000     4.0275  30.877655    32.9453    26.1491 0.0000e+00
   1799.805     69.000     4.0363  30.876730    32.9359    26.1408 0.0000e+00
   1803.491     68.000     4.0427  30.876728    32.9300    26.1354 0.0000e+00
   1806.738     67.000     4.0482  30.878838    32.9275    26.1329 0.0000e+00
   1809.947     66.000     4.0555  30.884075    32.9268    26.1317 0.0000e+00
   1813.498     65.000     4.0660  30.892518    32.9268    26.1306 0.0000e+00
   1816.837     64.000     4.0679  30.891946    32.9247    26.1287 0.0000e+00
   1819.903     63.000     4.0736  30.894973    32.9231    26.1269 0.0000e+00
   1823.327     62.000     4.1318  30.946043    32.9254    26.1228 0.0000e+00
   1826.790     61.000     4.2694  31.069580    32.9332    26.1151 0.0000e+00
   1829.744     60.000     4.3298  31.123503    32.9365    26.1115 0.0000e+00
   1833.343     59.000     4.3859  31.173801    32.9398    26.1083 0.0000e+00
   1836.928     58.000     4.4059  31.190609    32.9400    26.1063 0.0000e+00
   1840.110     57.000     4.4142  31.197105    32.9398    26.1053 0.0000e+00
   1843.823     56.000     4.4319  31.211201    32.9391    26.1029 0.0000e+00
   1847.235     55.000     4.4319  31.208230    32.9362    26.1006 0.0000e+00
   1850.492     54.000     4.4488  31.221113    32.9349    26.0978 0.0000e+00
   1854.159     53.000     4.4693  31.235040    32.9312    26.0927 0.0000e+00
   1857.575     52.000     4.4646  31.224919    32.9246    26.0879 0.0000e+00
   1861.152     51.000     4.4480  31.203602    32.9168    26.0835 0.0000e+00
   1864.760     50.000     4.4348  31.186120    32.9100    26.0795 0.0000e+00
   1868.573     49.000     4.4229  31.170912    32.9046    26.0765 0.0000e+00
   1872.075     48.000     4.4077  31.151734    32.8979    26.0727 0.0000e+00
   1876.031     47.000     4.3860  31.125529    32.8894    26.0683 0.0000e+00
   1879.505     46.000     4.3857  31.121981    32.8861    26.0656 0.0000e+00
   1883.760     45.000     4.4205  31.149360    32.8839    26.0603 0.0000e+00
   1887.522     44.000     4.4316  31.157655    32.8831    26.0584 0.0000e+00
   1891.633     43.000     4.4291  31.154285    32.8821    26.0580 0.0000e+00
   1895.721     42.000     4.4144  31.136283    32.8763    26.0548 0.0000e+00
   1900.049     41.000     4.3698  31.083704    32.8598    26.0464 0.0000e+00
   1904.490     40.000     4.3272  31.029705    32.8396    26.0347 0.0000e+00
   1909.278     39.000     4.3589  31.044501    32.8258    26.0205 0.0000e+00
   1914.381     38.000     4.4208  31.087284    32.8147    26.0053 0.0000e+00
   1919.588     37.000     4.4889  31.144572    32.8144    25.9979 0.0000e+00
   1924.582     36.000     4.5137  31.159419    32.8075    25.9899 0.0000e+00
   1929.638     35.000     4.5180  31.154982    32.7986    25.9823 0.0000e+00
   1934.939     34.000     4.5268  31.155676    32.7912    25.9755 0.0000e+00
   1940.534     33.000     4.5341  31.155144    32.7838    25.9689 0.0000e+00
   1946.163     32.000     4.5638  31.172911    32.7756    25.9592 0.0000e+00
   1951.753     31.000     4.5795  31.182412    32.7716    25.9544 0.0000e+00
   1957.209     30.000     4.5932  31.189720    32.7670    25.9493 0.0000e+00
   1962.632     29.000     4.6034  31.192312    32.7604    25.9430 0.0000e+00
   1967.897     28.000     4.6131  31.193441    32.7526    25.9358 0.0000e+00
   1973.168     27.000     4.6577  31.226643    32.7476    25.9271 0.0000e+00
   1978.335     26.000     4.6836  31.238074    32.7357    25.9149 0.0000e+00
   1983.562     25.000     4.6993  31.245818    32.7297    25.9084 0.0000e+00
   1988.709     24.000     4.7204  31.254634    32.7196    25.8981 0.0000e+00
   1994.032     23.000     4.7331  31.258361    32.7119    25.8907 0.0000e+00
   1999.269     22.000     4.7063  31.222192    32.6969    25.8817 0.0000e+00
   2004.376     21.000     4.6847  31.195743    32.6881    25.8770 0.0000e+00
   2009.748     20.000     4.6608  31.167743    32.6797    25.8729 0.0000e+00
   2014.336     19.000     4.6552  31.155546    32.6716    25.8671 0.0000e+00
   2019.788     18.000     4.6495  31.144545    32.6650    25.8624 0.0000e+00
   2024.880     17.000     4.6471  31.133654    32.6552    25.8549 0.0000e+00
   2030.018     16.000     4.6583  31.131601    32.6423    25.8435 0.0000e+00
   2035.018     15.000     4.6678  31.127825    32.6291    25.8320 0.0000e+00
   2039.967     14.000     4.6813  31.126234    32.6144    25.8189 0.0000e+00
   2044.535     13.000     4.7088  31.121416    32.5823    25.7905 0.0000e+00
   2049.415     12.000     4.7845  31.173943    32.5692    25.7720 0.0000e+00
   2054.126     11.000     5.2992  31.589975    32.5444    25.6953 0.0000e+00
   2058.659     10.000     5.5701  31.812714    32.5352    25.6567 0.0000e+00
   2062.826      9.000     5.7366  31.948011    32.5277    25.6311 0.0000e+00
   2067.184      8.000     5.9064  32.091022    32.5254    25.6090 0.0000e+00
   2071.513      7.000     6.0368  32.205694    32.5291    25.5960 0.0000e+00
   2076.149      6.000     6.1182  32.279390    32.5338    25.5897 0.0000e+00
   2080.771      5.000     6.1434  32.303025    32.5365    25.5887 0.0000e+00
   2085.677      4.000     6.1429  32.302871    32.5373    25.5894 0.0000e+00
   2090.544      3.000     6.1501  32.309712    32.5385    25.5895 0.0000e+00
   2104.584      2.000     6.1602  32.319205    32.5399    25.5893 0.0000e+00
   2110.946      1.000     6.1567  30.991934    31.0676    24.4280 0.0000e+00
