* Sea-Bird SBE 19plus Data File:
* FileName = C:\Sea-Bird Data\2014\DY1405\Casts\BON032.hex
* Software Version Seasave V 7.22.3
* Temperature SN = 4530
* Conductivity SN = 4530
* System UpLoad Time = May 11 2014 06:40:33
* Real-Time Sample Interval = 0.2500 seconds
* System UTC = May 11 2014 06:40:33
# nquan = 7                                 
# nvalues = 131                         
# units = specified
# name 0 = timeS: Time, Elapsed [seconds]
# name 1 = prdM: Pressure, Strain Gauge [db]
# name 2 = tv290C: Temperature [ITS-90, deg C]
# name 3 = c0mS/cm: Conductivity [mS/cm]
# name 4 = sal00: Salinity, Practical [PSU]
# name 5 = sigma-t00: Density [sigma-t, Kg/m^3 ]
# name 6 = flag: flag
# span 0 =     91.934,    503.197       
# span 1 =      1.000,     66.000       
# span 2 =     1.8231,     2.9864       
# span 3 =  24.939136,  29.603921       
# span 4 =    26.9146,    32.5845       
# span 5 =    21.4380,    25.9669       
# span 6 = 0.0000e+00, 0.0000e+00       
# interval = decibars: 1                
# start_time = May 11 2014 06:40:33 [System UTC, header]
# bad_flag = -9.990e-29
# <Sensors count="3" >
#   <sensor Channel="1" >
#     <!-- Count, Temperature -->
#     <TemperatureSensor SensorID="58" >
#       <SerialNumber>4530</SerialNumber>
#       <CalibrationDate>03-Dec-13</CalibrationDate>
#       <A0>1.22471000e-003</A0>
#       <A1>2.66234600e-004</A1>
#       <A2>-3.25282000e-007</A2>
#       <A3>1.63905300e-007</A3>
#       <Slope>1.00000000</Slope>
#       <Offset>0.0000</Offset>
#     </TemperatureSensor>
#   </sensor>
#   <sensor Channel="2" >
#     <!-- Frequency 0, Conductivity -->
#     <ConductivitySensor SensorID="3" >
#       <SerialNumber>4530</SerialNumber>
#       <CalibrationDate>03-Dec-13</CalibrationDate>
#       <UseG_J>1</UseG_J>
#       <!-- Cell const and series R are applicable only for wide range sensors. -->
#       <SeriesR>0.0000</SeriesR>
#       <CellConst>2000.0000</CellConst>
#       <ConductivityType>0</ConductivityType>
#       <Coefficients equation="0" >
#         <A>0.00000000e+000</A>
#         <B>0.00000000e+000</B>
#         <C>0.00000000e+000</C>
#         <D>0.00000000e+000</D>
#         <M>0.0</M>
#         <CPcor>-9.57000000e-008</CPcor>
#       </Coefficients>
#       <Coefficients equation="1" >
#         <G>-9.84131900e-001</G>
#         <H>1.41458700e-001</H>
#         <I>-1.92288200e-004</I>
#         <J>3.59848200e-005</J>
#         <CPcor>-9.57000000e-008</CPcor>
#         <CTcor>3.2500e-006</CTcor>
#         <!-- WBOTC not applicable unless ConductivityType = 1. -->
#         <WBOTC>0.00000000e+000</WBOTC>
#       </Coefficients>
#       <Slope>1.00000000</Slope>
#       <Offset>0.00000</Offset>
#     </ConductivitySensor>
#   </sensor>
#   <sensor Channel="3" >
#     <!-- Count, Pressure, Strain Gauge -->
#     <PressureSensor SensorID="46" >
#       <SerialNumber>4530</SerialNumber>
#       <CalibrationDate>02-Dec-13</CalibrationDate>
#       <PA0>-3.35712300e-001</PA0>
#       <PA1>1.56795400e-002</PA1>
#       <PA2>-6.60390500e-010</PA2>
#       <PTEMPA0>-6.74611800e+001</PTEMPA0>
#       <PTEMPA1>5.06446900e+001</PTEMPA1>
#       <PTEMPA2>-4.65162800e-001</PTEMPA2>
#       <PTCA0>5.24503600e+005</PTCA0>
#       <PTCA1>-3.17070100e-002</PTCA1>
#       <PTCA2>-4.70494400e-002</PTCA2>
#       <PTCB0>2.49031200e+001</PTCB0>
#       <PTCB1>-5.75000000e-004</PTCB1>
#       <PTCB2>0.00000000e+000</PTCB2>
#       <Offset>0.000000</Offset>
#     </PressureSensor>
#   </sensor>
# </Sensors>
# datcnv_date = May 13 2014 00:13:56, 7.22.2 [datcnv_vars = 4]
# datcnv_in = c:\data\seacat\current\bon032.hex c:\data\seacat\current\bon032.XMLCON
# datcnv_skipover = 0
# filter_date = May 13 2014 00:13:57, 7.22.2
# filter_in = c:\data\seacat\current\bon032.cnv
# filter_low_pass_tc_A = 0.500
# filter_low_pass_tc_B = 2.000
# filter_low_pass_A_vars = prdM tv290C c0mS/cm
# filter_low_pass_B_vars =
# alignctd_date = May 13 2014 00:13:57, 7.22.2
# alignctd_in = c:\data\seacat\current\bon032.cnv
# alignctd_adv = tv290C 0.500                                                                                                                                                                                                        
# wildedit_date = May 13 2014 00:13:57, 7.22.2
# wildedit_in = c:\data\seacat\current\bon032.cnv
# wildedit_pass1_nstd = 2.0
# wildedit_pass2_nstd = 15.0
# wildedit_pass2_mindelta = 1.000e-002
# wildedit_npoint = 100
# wildedit_vars = prdM tv290C c0mS/cm
# wildedit_excl_bad_scans = yes
# binavg_date = May 13 2014 00:13:57, 7.22.2
# binavg_in = c:\data\seacat\current\bon032.cnv
# binavg_bintype = decibars
# binavg_binsize = 1
# binavg_excl_bad_scans = yes
# binavg_skipover = 0
# binavg_surface_bin = no, min = 0.000, max = 0.500, value = 0.000
# Derive_date = May 13 2014 00:13:57, 7.22.2 [derive_vars = 2]
# Derive_in = c:\data\seacat\current\bon032.cnv c:\data\seacat\current\BON032.XMLcon
# file_type = ascii
*END*
     91.934      1.000     2.9864  24.939136    26.9146    21.4380 0.0000e+00
     94.533      2.000     2.8223  29.256786    32.2499    25.7051 0.0000e+00
     96.855      3.000     2.8095  29.427665    32.4703    25.8822 0.0000e+00
     99.552      4.000     2.8191  29.451231    32.4888    25.8961 0.0000e+00
    102.069      5.000     2.8325  29.509773    32.5460    25.9407 0.0000e+00
    104.637      6.000     2.8373  29.499882    32.5286    25.9263 0.0000e+00
    106.627      7.000     2.9007  29.562935    32.5405    25.9305 0.0000e+00
    108.486      8.000     2.9433  29.586918    32.5260    25.9153 0.0000e+00
    110.369      9.000     2.9579  29.603921    32.5313    25.9184 0.0000e+00
    112.245     10.000     2.9165  29.582087    32.5462    25.9337 0.0000e+00
    114.065     11.000     2.8861  29.588691    32.5845    25.9669 0.0000e+00
    124.145     12.000     2.6741  29.290353    32.4350    25.8651 0.0000e+00
    131.238     13.000     2.5593  29.159142    32.3902    25.8385 0.0000e+00
    132.826     14.000     2.5157  29.101777    32.3635    25.8206 0.0000e+00
    134.267     15.000     2.4871  29.080713    32.3661    25.8250 0.0000e+00
    135.883     16.000     2.4476  29.054623    32.3735    25.8341 0.0000e+00
    137.742     17.000     2.3493  28.984878    32.3870    25.8525 0.0000e+00
    139.671     18.000     2.1404  28.829642    32.4074    25.8846 0.0000e+00
    141.527     19.000     1.9792  28.709756    32.4228    25.9088 0.0000e+00
    143.425     20.000     1.8827  28.635445    32.4285    25.9203 0.0000e+00
    145.615     21.000     1.8514  28.610748    32.4292    25.9231 0.0000e+00
    147.824     22.000     1.8431  28.603211    32.4278    25.9225 0.0000e+00
    150.083     23.000     1.8385  28.598977    32.4267    25.9219 0.0000e+00
    152.104     24.000     1.8355  28.596513    32.4261    25.9217 0.0000e+00
    154.065     25.000     1.8270  28.589248    32.4252    25.9216 0.0000e+00
    156.346     26.000     1.8272  28.589675    32.4250    25.9214 0.0000e+00
    158.322     27.000     1.8285  28.590761    32.4245    25.9209 0.0000e+00
    159.970     28.000     1.8305  28.592906    32.4245    25.9208 0.0000e+00
    161.838     29.000     1.8287  28.591427    32.4240    25.9205 0.0000e+00
    163.955     30.000     1.8295  28.592555    32.4240    25.9204 0.0000e+00
    165.820     31.000     1.8283  28.591735    32.4237    25.9202 0.0000e+00
    167.632     32.000     1.8283  28.592119    32.4236    25.9202 0.0000e+00
    169.636     33.000     1.8285  28.592623    32.4235    25.9201 0.0000e+00
    171.630     34.000     1.8284  28.592968    32.4235    25.9201 0.0000e+00
    173.406     35.000     1.8279  28.593026    32.4235    25.9201 0.0000e+00
    175.398     36.000     1.8272  28.592782    32.4234    25.9201 0.0000e+00
    177.465     37.000     1.8271  28.593077    32.4233    25.9200 0.0000e+00
    179.242     38.000     1.8257  28.592086    32.4229    25.9198 0.0000e+00
    181.242     39.000     1.8263  28.593062    32.4230    25.9198 0.0000e+00
    183.503     40.000     1.8269  28.594076    32.4231    25.9199 0.0000e+00
    185.341     41.000     1.8279  28.595281    32.4230    25.9198 0.0000e+00
    187.227     42.000     1.8276  28.595361    32.4229    25.9197 0.0000e+00
    189.721     43.000     1.8264  28.594897    32.4230    25.9198 0.0000e+00
    191.975     44.000     1.8260  28.594820    32.4228    25.9197 0.0000e+00
    193.769     45.000     1.8258  28.595118    32.4228    25.9197 0.0000e+00
    196.025     46.000     1.8259  28.595693    32.4228    25.9197 0.0000e+00
    198.616     47.000     1.8243  28.594875    32.4229    25.9199 0.0000e+00
    200.550     48.000     1.8231  28.594136    32.4227    25.9198 0.0000e+00
    202.424     49.000     1.8232  28.594563    32.4226    25.9197 0.0000e+00
    204.597     50.000     1.8232  28.595022    32.4226    25.9197 0.0000e+00
    206.851     51.000     1.8233  28.595539    32.4226    25.9197 0.0000e+00
    208.519     52.000     1.8231  28.595775    32.4225    25.9197 0.0000e+00
    210.275     53.000     1.8233  28.596460    32.4226    25.9198 0.0000e+00
    212.426     54.000     1.8247  28.598154    32.4228    25.9198 0.0000e+00
    214.396     55.000     1.8250  28.598898    32.4228    25.9198 0.0000e+00
    216.143     56.000     1.8247  28.598946    32.4227    25.9197 0.0000e+00
    218.193     57.000     1.8249  28.599686    32.4228    25.9198 0.0000e+00
    220.228     58.000     1.8252  28.600372    32.4228    25.9198 0.0000e+00
    222.321     59.000     1.8253  28.600899    32.4228    25.9198 0.0000e+00
    224.530     60.000     1.8254  28.601392    32.4228    25.9197 0.0000e+00
    226.428     61.000     1.8255  28.601955    32.4228    25.9198 0.0000e+00
    228.371     62.000     1.8242  28.601282    32.4228    25.9198 0.0000e+00
    230.681     63.000     1.8245  28.601959    32.4228    25.9198 0.0000e+00
    232.798     64.000     1.8252  28.603042    32.4229    25.9198 0.0000e+00
    234.832     65.000     1.8247  28.603137    32.4229    25.9199 0.0000e+00
    241.851     66.000     1.8259  28.604514    32.4229    25.9198 0.0000e+00
    247.249     65.000     1.8245  28.602893    32.4228    25.9198 0.0000e+00
    250.010     64.000     1.8248  28.602608    32.4227    25.9197 0.0000e+00
    252.146     63.000     1.8248  28.602219    32.4228    25.9198 0.0000e+00
    255.160     62.000     1.8247  28.601526    32.4226    25.9196 0.0000e+00
    258.279     61.000     1.8257  28.602007    32.4227    25.9196 0.0000e+00
    260.632     60.000     1.8259  28.601820    32.4228    25.9197 0.0000e+00
    264.426     59.000     1.8253  28.600851    32.4228    25.9197 0.0000e+00
    266.669     58.000     1.8258  28.600914    32.4229    25.9198 0.0000e+00
    269.935     57.000     1.8255  28.600235    32.4229    25.9198 0.0000e+00
    273.343     56.000     1.8249  28.599249    32.4228    25.9198 0.0000e+00
    275.981     55.000     1.8257  28.599539    32.4229    25.9198 0.0000e+00
    279.752     54.000     1.8259  28.599326    32.4230    25.9199 0.0000e+00
    282.559     53.000     1.8256  28.598535    32.4229    25.9198 0.0000e+00
    286.303     52.000     1.8246  28.597189    32.4228    25.9198 0.0000e+00
    289.334     51.000     1.8248  28.596951    32.4228    25.9198 0.0000e+00
    293.053     50.000     1.8249  28.596650    32.4229    25.9198 0.0000e+00
    295.972     49.000     1.8246  28.595762    32.4226    25.9197 0.0000e+00
    299.076     48.000     1.8251  28.595888    32.4228    25.9198 0.0000e+00
    302.614     47.000     1.8262  28.596473    32.4230    25.9198 0.0000e+00
    305.498     46.000     1.8263  28.596064    32.4229    25.9198 0.0000e+00
    309.227     45.000     1.8263  28.595532    32.4228    25.9197 0.0000e+00
    312.694     44.000     1.8264  28.595302    32.4229    25.9198 0.0000e+00
    316.564     43.000     1.8267  28.595193    32.4231    25.9199 0.0000e+00
    320.485     42.000     1.8276  28.595558    32.4231    25.9199 0.0000e+00
    324.639     41.000     1.8278  28.595238    32.4231    25.9198 0.0000e+00
    328.853     40.000     1.8279  28.594879    32.4231    25.9198 0.0000e+00
    333.635     39.000     1.8281  28.594692    32.4232    25.9199 0.0000e+00
    337.623     38.000     1.8279  28.593986    32.4231    25.9198 0.0000e+00
    343.291     37.000     1.8290  28.594535    32.4232    25.9198 0.0000e+00
    346.945     36.000     1.8311  28.595886    32.4232    25.9197 0.0000e+00
    351.645     35.000     1.8322  28.596425    32.4233    25.9197 0.0000e+00
    356.768     34.000     1.8323  28.595970    32.4232    25.9196 0.0000e+00
    361.195     33.000     1.8288  28.592651    32.4232    25.9198 0.0000e+00
    366.266     32.000     1.8289  28.592257    32.4232    25.9198 0.0000e+00
    370.562     31.000     1.8301  28.592950    32.4234    25.9199 0.0000e+00
    375.444     30.000     1.8302  28.592543    32.4233    25.9198 0.0000e+00
    379.861     29.000     1.8302  28.592222    32.4234    25.9199 0.0000e+00
    384.775     28.000     1.8300  28.591546    32.4234    25.9199 0.0000e+00
    389.514     27.000     1.8308  28.591780    32.4234    25.9198 0.0000e+00
    395.277     26.000     1.8336  28.593711    32.4235    25.9197 0.0000e+00
    400.038     25.000     1.8372  28.596181    32.4234    25.9194 0.0000e+00
    405.192     24.000     1.8313  28.590903    32.4234    25.9198 0.0000e+00
    409.892     23.000     1.8358  28.594118    32.4234    25.9195 0.0000e+00
    414.785     22.000     1.8484  28.604157    32.4235    25.9187 0.0000e+00
    419.531     21.000     1.8605  28.613470    32.4233    25.9177 0.0000e+00
    423.841     20.000     1.8697  28.620508    32.4232    25.9169 0.0000e+00
    429.009     19.000     1.8910  28.636106    32.4214    25.9140 0.0000e+00
    432.977     18.000     2.0094  28.724040    32.4102    25.8965 0.0000e+00
    437.756     17.000     2.1872  28.851037    32.3867    25.8645 0.0000e+00
    441.806     16.000     2.3635  28.982374    32.3700    25.8378 0.0000e+00
    446.382     15.000     2.4557  29.050396    32.3606    25.8231 0.0000e+00
    450.135     14.000     2.4750  29.064034    32.3584    25.8198 0.0000e+00
    454.217     13.000     2.4920  29.074276    32.3543    25.8152 0.0000e+00
    457.864     12.000     2.5133  29.088574    32.3508    25.8107 0.0000e+00
    461.891     11.000     2.5399  29.107031    32.3470    25.8056 0.0000e+00
    465.761     10.000     2.5620  29.122945    32.3447    25.8020 0.0000e+00
    469.368      9.000     2.5937  29.146764    32.3423    25.7975 0.0000e+00
    473.392      8.000     2.6447  29.184881    32.3379    25.7899 0.0000e+00
    476.985      7.000     2.7349  29.255626    32.3338    25.7793 0.0000e+00
    480.824      6.000     2.8021  29.307011    32.3292    25.7701 0.0000e+00
    484.640      5.000     2.8434  29.337964    32.3258    25.7640 0.0000e+00
    488.690      4.000     2.8501  29.342991    32.3257    25.7633 0.0000e+00
    492.310      3.000     2.8486  29.341781    32.3263    25.7639 0.0000e+00
    496.331      2.000     2.8504  29.342861    32.3263    25.7638 0.0000e+00
    503.197      1.000     2.8488  29.295066    32.2703    25.7192 0.0000e+00
